File: code/XRD_Analysis/External Sources/Fabian/SAPO-18/25012024_SAPO-18_calc.xy
4.98146 1223.0
5.26555 1133.0
5.54964 1133.0
5.83373 1027.0
6.11782 1016.0
6.40191 883.0
6.68601 888.0
6.9701 852.0
7.25419 819.0
7.53828 805.0
7.82237 786.0
8.10646 783.0
8.39055 753.0
8.67465 781.0
8.95874 867.0
9.24283 1511.0
9.52692 6205.0
9.81101 2138.0
10.0951 925.0
10.3792 1109.0
10.6633 1707.0
10.9474 810.0
11.2315 636.0
11.5156 630.0
11.7997 643.0
12.0837 572.0
12.3678 632.0
12.6519 871.0
12.936 1569.0
13.2201 716.0
13.5042 904.0
13.7883 754.0
14.0724 598.0
14.3565 566.0
14.6406 565.0
14.9247 560.0
15.2088 576.0
15.4928 617.0
15.7769 700.0
16.061 1085.0
16.3451 925.0
16.6292 755.0
16.9133 1708.0
17.1974 1601.0
17.4815 1141.0
17.7656 819.0
18.0497 679.0
18.3338 660.0
18.6179 607.0
18.9019 735.0
19.186 844.0
19.4701 795.0
19.7542 886.0
20.0383 938.0
20.3224 1147.0
20.6065 1501.0
20.8906 1082.0
21.1747 1096.0
21.4588 1521.0
21.7429 923.0
22.0269 722.0
22.311 784.0
22.5951 926.0
22.8792 786.0
23.1633 948.0
23.4474 979.0
23.7315 1261.0
24.0156 2024.0
24.2997 1406.0
24.5838 937.0
24.8679 841.0
25.152 849.0
25.436 1089.0
25.7201 1110.0
26.0042 1385.0
26.2883 1429.0
26.5724 1292.0
26.8565 964.0
27.1406 892.0
27.4247 916.0
27.7088 1026.0
27.9929 1198.0
28.277 1192.0
28.5611 1072.0
28.8451 933.0
29.1292 840.0
29.4133 981.0
29.6974 1097.0
29.9815 1206.0
30.2656 1216.0
30.5497 1232.0
30.8338 1466.0
31.1179 1791.0
31.402 1613.0
31.6861 1174.0
31.9702 995.0
32.2542 1069.0
32.5383 1099.0
32.8224 1081.0
33.1065 1089.0
33.3906 855.0
33.6747 678.0
33.9588 654.0
34.2429 621.0
34.527 621.0
34.8111 578.0
35.0952 592.0
35.3793 610.0
35.6633 553.0
35.9474 563.0
36.2315 544.0
36.5156 532.0
36.7997 510.0
37.0838 485.0
37.3679 463.0
37.652 430.0
37.9361 420.0
38.2202 409.0
38.5043 425.0
38.7884 439.0
39.0724 440.0
39.3565 448.0
39.6406 402.0
39.9247 404.0
40.2088 440.0
40.4929 439.0
40.777 402.0
41.0611 435.0
41.3452 411.0
41.6293 442.0
41.9134 427.0
42.1975 432.0
42.4815 439.0
42.7656 409.0
43.0497 394.0
43.3338 427.0
43.6179 413.0
43.902 440.0
44.1861 386.0
44.4702 358.0
44.7543 425.0
45.0384 364.0
45.3225 363.0
45.6066 393.0
45.8906 429.0
46.1747 395.0
46.4588 383.0
46.7429 355.0
47.027 383.0
47.3111 385.0
47.5952 311.0
47.8793 388.0
48.1634 305.0
48.4475 370.0
48.7316 368.0
49.0156 413.0
49.2997 436.0
49.5838 414.0
49.8679 460.0
50.152 413.0
50.4361 428.0
50.7202 434.0
51.0043 435.0
51.2884 392.0
51.5725 400.0
51.8566 383.0
52.1407 340.0
52.4247 395.0
52.7088 413.0
52.9929 370.0
53.277 366.0
53.5611 386.0
53.8452 349.0
54.1293 366.0
54.4134 353.0
54.6975 322.0
54.9816 349.0
55.2657 379.0
55.5498 363.0
55.8338 368.0
56.1179 397.0
56.402 387.0
56.6861 369.0
56.9702 342.0
57.2543 300.0
57.5384 320.0
57.8225 338.0
58.1066 310.0
58.3907 306.0
58.6748 324.0
58.9589 336.0
59.2429 337.0
59.527 370.0
59.8111 322.0
60.0952 330.0
60.3793 328.0
60.6634 358.0
60.9475 368.0
61.2316 329.0
61.5157 319.0
61.7998 308.0
62.0839 293.0
62.368 278.0
62.652 315.0
62.9361 320.0
63.2202 288.0
63.5043 332.0
63.7884 282.0
64.0725 287.0
64.3566 303.0
64.6407 307.0
64.9248 310.0
65.2089 299.0
65.493 338.0
65.7771 261.0
66.0611 285.0
66.3452 326.0
66.6293 297.0
66.9134 322.0
67.1975 297.0
67.4816 291.0
67.7657 328.0
68.0498 337.0
68.3339 287.0
68.618 278.0
68.9021 304.0
69.1862 270.0
69.4702 273.0
69.7543 279.0
70.0384 299.0
70.3225 290.0
70.6066 261.0
70.8907 323.0
71.1748 294.0
71.4589 277.0
71.743 288.0
72.0271 255.0
72.3112 267.0
72.5952 271.0
72.8793 275.0
73.1634 306.0
73.4475 268.0
73.7316 277.0
74.0157 254.0
74.2998 235.0
74.5839 237.0
74.868 240.0
75.1521 247.0
75.4362 228.0
75.7203 248.0
76.0043 227.0
76.2884 263.0
76.5725 220.0
76.8566 214.0
77.1407 201.0
77.4248 248.0
77.7089 230.0
77.993 211.0
78.2771 224.0
78.5612 228.0
78.8453 227.0
79.1294 246.0
79.4134 207.0
79.6975 192.0
79.9816 203.0
80.2657 222.0
80.5498 197.0
80.8339 203.0
81.118 206.0
81.4021 183.0
81.6862 183.0
81.9703 191.0
82.2544 179.0
82.5385 201.0
82.8225 180.0
83.1066 191.0
83.3907 168.0
83.6748 177.0
83.9589 201.0
84.243 190.0
84.5271 174.0
84.8112 181.0
85.0953 167.0
85.3794 176.0
85.6635 178.0
85.9476 176.0
86.2316 142.0
86.5157 141.0
86.7998 152.0
87.0839 148.0
87.368 165.0
87.6521 167.0
87.9362 144.0
88.2203 153.0
88.5044 148.0
88.7885 150.0
89.0726 148.0
89.3567 165.0
89.6407 153.0
89.9248 146.0
89.9415 133.0