File: code/XRD_Analysis/External Sources/Fabian/SAPO-18/5-90_step0_016_1h_20240108_SAPO-18_zero_BG_holder_fein.xy
4.98146 1308.0
5.26555 1244.0
5.54964 1080.0
5.83373 1054.0
6.11782 916.0
6.40191 913.0
6.68601 837.0
6.9701 806.0
7.25419 771.0
7.53828 755.0
7.82237 729.0
8.10646 711.0
8.39055 759.0
8.67465 684.0
8.95874 745.0
9.24283 904.0
9.52692 3434.0
9.81101 3644.0
10.0951 790.0
10.3792 743.0
10.6633 1401.0
10.9474 1024.0
11.2315 771.0
11.5156 550.0
11.7997 581.0
12.0837 554.0
12.3678 496.0
12.6519 570.0
12.936 834.0
13.2201 766.0
13.5042 524.0
13.7883 492.0
14.0724 957.0
14.3565 609.0
14.6406 597.0
14.9247 1157.0
15.2088 693.0
15.4928 751.0
15.7769 1921.0
16.061 2642.0
16.3451 1397.0
16.6292 1312.0
16.9133 3442.0
17.1974 6336.0
17.4815 1980.0
17.7656 1230.0
18.0497 857.0
18.3338 612.0
18.6179 529.0
18.9019 605.0
19.186 1015.0
19.4701 998.0
19.7542 2114.0
20.0383 1977.0
20.3224 2430.0
20.6065 2762.0
20.8906 2902.0
21.1747 2617.0
21.4588 2604.0
21.7429 1369.0
22.0269 1434.0
22.311 953.0
22.5951 862.0
22.8792 730.0
23.1633 739.0
23.4474 758.0
23.7315 1391.0
24.0156 2389.0
24.2997 1740.0
24.5838 1381.0
24.8679 1051.0
25.152 821.0
25.436 895.0
25.7201 1235.0
26.0042 1512.0
26.2883 2229.0
26.5724 2060.0
26.8565 1350.0
27.1406 872.0
27.4247 759.0
27.7088 1132.0
27.9929 1815.0
28.277 1276.0
28.5611 736.0
28.8451 689.0
29.1292 759.0
29.4133 930.0
29.6974 1039.0
29.9815 1371.0
30.2656 1854.0
30.5497 1852.0
30.8338 1721.0
31.1179 2711.0
31.402 1778.0
31.6861 1230.0
31.9702 1513.0
32.2542 1855.0
32.5383 1911.0
32.8224 1465.0
33.1065 1012.0
33.3906 828.0
33.6747 719.0
33.9588 531.0
34.2429 584.0
34.527 674.0
34.8111 648.0
35.0952 532.0
35.3793 514.0
35.6633 422.0
35.9474 543.0
36.2315 784.0
36.5156 720.0
36.7997 504.0
37.0838 420.0
37.3679 385.0
37.652 387.0
37.9361 403.0
38.2202 395.0
38.5043 441.0
38.7884 478.0
39.0724 613.0
39.3565 589.0
39.6406 534.0
39.9247 508.0
40.2088 544.0
40.4929 536.0
40.777 486.0
41.0611 475.0
41.3452 528.0
41.6293 626.0
41.9134 539.0
42.1975 416.0
42.4815 385.0
42.7656 480.0
43.0497 599.0
43.3338 723.0
43.6179 538.0
43.902 533.0
44.1861 549.0
44.4702 521.0
44.7543 464.0
45.0384 427.0
45.3225 363.0
45.6066 424.0
45.8906 399.0
46.1747 367.0
46.4588 400.0
46.7429 383.0
47.027 369.0
47.3111 339.0
47.5952 349.0
47.8793 460.0
48.1634 498.0
48.4475 497.0
48.7316 611.0
49.0156 957.0
49.2997 873.0
49.5838 677.0
49.8679 734.0
50.152 788.0
50.4361 627.0
50.7202 610.0
51.0043 768.0
51.2884 666.0
51.5725 584.0
51.8566 478.0
52.1407 512.0
52.4247 542.0
52.7088 500.0
52.9929 491.0
53.277 479.0
53.5611 434.0
53.8452 389.0
54.1293 382.0
54.4134 529.0
54.6975 541.0
54.9816 583.0
55.2657 676.0
55.5498 616.0
55.8338 548.0
56.1179 554.0
56.402 436.0
56.6861 363.0
56.9702 398.0
57.2543 427.0
57.5384 352.0
57.8225 338.0
58.1066 388.0
58.3907 373.0
58.6748 398.0
58.9589 385.0
59.2429 486.0
59.527 489.0
59.8111 531.0
60.0952 496.0
60.3793 545.0
60.6634 457.0
60.9475 420.0
61.2316 380.0
61.5157 431.0
61.7998 417.0
62.0839 433.0
62.368 417.0
62.652 419.0
62.9361 438.0
63.2202 436.0
63.5043 441.0
63.7884 407.0
64.0725 420.0
64.3566 365.0
64.6407 416.0
64.9248 373.0
65.2089 400.0
65.493 449.0
65.7771 398.0
66.0611 440.0
66.3452 462.0
66.6293 617.0
66.9134 590.0
67.1975 457.0
67.4816 453.0
67.7657 456.0
68.0498 455.0
68.3339 415.0
68.618 387.0
68.9021 372.0
69.1862 386.0
69.4702 438.0
69.7543 520.0
70.0384 598.0
70.3225 542.0
70.6066 483.0
70.8907 411.0
71.1748 403.0
71.4589 394.0
71.743 448.0
72.0271 438.0
72.3112 444.0
72.5952 470.0
72.8793 425.0
73.1634 449.0
73.4475 411.0
73.7316 427.0
74.0157 381.0
74.2998 353.0
74.5839 342.0
74.868 362.0
75.1521 364.0
75.4362 373.0
75.7203 315.0
76.0043 364.0
76.2884 332.0
76.5725 332.0
76.8566 333.0
77.1407 331.0
77.4248 353.0
77.7089 333.0
77.993 329.0
78.2771 320.0
78.5612 320.0
78.8453 310.0
79.1294 276.0
79.4134 267.0
79.6975 323.0
79.9816 316.0
80.2657 294.0
80.5498 293.0
80.8339 300.0
81.118 338.0
81.4021 321.0
81.6862 305.0
81.9703 302.0
82.2544 266.0
82.5385 293.0
82.8225 273.0
83.1066 302.0
83.3907 260.0
83.6748 283.0
83.9589 297.0
84.243 289.0
84.5271 264.0
84.8112 250.0
85.0953 242.0
85.3794 264.0
85.6635 231.0
85.9476 227.0
86.2316 240.0
86.5157 230.0
86.7998 219.0
87.0839 222.0
87.368 270.0
87.6521 256.0
87.9362 221.0
88.2203 200.0
88.5044 247.0
88.7885 214.0
89.0726 242.0
89.3567 212.0
89.6407 190.0
89.9248 221.0
89.9415 183.0