File: code/XRD_Analysis/External Sources/Fabian/SAPO-18/5-90_step0_016_1h_20240108_SAPO-18_zero_BG_holder_grob.xy
4.98146 888.0
5.26555 719.0
5.54964 727.0
5.83373 726.0
6.11782 646.0
6.40191 570.0
6.68601 612.0
6.9701 585.0
7.25419 518.0
7.53828 533.0
7.82237 492.0
8.10646 478.0
8.39055 466.0
8.67465 425.0
8.95874 413.0
9.24283 454.0
9.52692 662.0
9.81101 1326.0
10.0951 1398.0
10.3792 407.0
10.6633 425.0
10.9474 539.0
11.2315 539.0
11.5156 358.0
11.7997 302.0
12.0837 342.0
12.3678 280.0
12.6519 268.0
12.936 285.0
13.2201 339.0
13.5042 342.0
13.7883 280.0
14.0724 287.0
14.3565 354.0
14.6406 303.0
14.9247 306.0
15.2088 370.0
15.4928 307.0
15.7769 360.0
16.061 700.0
16.3451 816.0
16.6292 644.0
16.9133 689.0
17.1974 1360.0
17.4815 1534.0
17.7656 751.0
18.0497 509.0
18.3338 367.0
18.6179 252.0
18.9019 258.0
19.186 258.0
19.4701 391.0
19.7542 501.0
20.0383 633.0
20.3224 791.0
20.6065 923.0
20.8906 1020.0
21.1747 1041.0
21.4588 1031.0
21.7429 859.0
22.0269 574.0
22.311 522.0
22.5951 391.0
22.8792 384.0
23.1633 308.0
23.4474 333.0
23.7315 444.0
24.0156 673.0
24.2997 951.0
24.5838 732.0
24.8679 522.0
25.152 446.0
25.436 389.0
25.7201 431.0
26.0042 648.0
26.2883 783.0
26.5724 991.0
26.8565 779.0
27.1406 612.0
27.4247 412.0
27.7088 435.0
27.9929 705.0
28.277 789.0
28.5611 594.0
28.8451 347.0
29.1292 347.0
29.4133 403.0
29.6974 448.0
29.9815 531.0
30.2656 810.0
30.5497 904.0
30.8338 881.0
31.1179 1111.0
31.402 1161.0
31.6861 739.0
31.9702 711.0
32.2542 868.0
32.5383 1027.0
32.8224 1052.0
33.1065 737.0
33.3906 505.0
33.6747 384.0
33.9588 340.0
34.2429 302.0
34.527 336.0
34.8111 355.0
35.0952 349.0
35.3793 309.0
35.6633 237.0
35.9474 280.0
36.2315 358.0
36.5156 376.0
36.7997 285.0
37.0838 273.0
37.3679 259.0
37.652 223.0
37.9361 208.0
38.2202 231.0
38.5043 217.0
38.7884 241.0
39.0724 287.0
39.3565 345.0
39.6406 346.0
39.9247 294.0
40.2088 297.0
40.4929 341.0
40.777 270.0
41.0611 284.0
41.3452 321.0
41.6293 337.0
41.9134 373.0
42.1975 272.0
42.4815 248.0
42.7656 236.0
43.0497 311.0
43.3338 431.0
43.6179 393.0
43.902 298.0
44.1861 326.0
44.4702 317.0
44.7543 288.0
45.0384 273.0
45.3225 230.0
45.6066 261.0
45.8906 269.0
46.1747 230.0
46.4588 256.0
46.7429 230.0
47.027 255.0
47.3111 247.0
47.5952 228.0
47.8793 230.0
48.1634 308.0
48.4475 334.0
48.7316 349.0
49.0156 514.0
49.2997 633.0
49.5838 525.0
49.8679 460.0
50.152 466.0
50.4361 472.0
50.7202 420.0
51.0043 451.0
51.2884 419.0
51.5725 411.0
51.8566 379.0
52.1407 309.0
52.4247 322.0
52.7088 316.0
52.9929 302.0
53.277 331.0
53.5611 309.0
53.8452 270.0
54.1293 314.0
54.4134 304.0
54.6975 354.0
54.9816 335.0
55.2657 435.0
55.5498 430.0
55.8338 449.0
56.1179 397.0
56.402 328.0
56.6861 311.0
56.9702 286.0
57.2543 282.0
57.5384 285.0
57.8225 271.0
58.1066 276.0
58.3907 256.0
58.6748 273.0
58.9589 275.0
59.2429 299.0
59.527 357.0
59.8111 354.0
60.0952 330.0
60.3793 318.0
60.6634 340.0
60.9475 316.0
61.2316 289.0
61.5157 317.0
61.7998 316.0
62.0839 313.0
62.368 319.0
62.652 345.0
62.9361 306.0
63.2202 311.0
63.5043 291.0
63.7884 358.0
64.0725 331.0
64.3566 311.0
64.6407 289.0
64.9248 299.0
65.2089 284.0
65.493 272.0
65.7771 279.0
66.0611 310.0
66.3452 325.0
66.6293 455.0
66.9134 423.0
67.1975 382.0
67.4816 360.0
67.7657 383.0
68.0498 342.0
68.3339 358.0
68.618 291.0
68.9021 306.0
69.1862 328.0
69.4702 348.0
69.7543 396.0
70.0384 465.0
70.3225 471.0
70.6066 393.0
70.8907 337.0
71.1748 308.0
71.4589 331.0
71.743 352.0
72.0271 335.0
72.3112 419.0
72.5952 389.0
72.8793 368.0
73.1634 410.0
73.4475 357.0
73.7316 365.0
74.0157 335.0
74.2998 297.0
74.5839 291.0
74.868 295.0
75.1521 308.0
75.4362 302.0
75.7203 269.0
76.0043 302.0
76.2884 322.0
76.5725 272.0
76.8566 305.0
77.1407 308.0
77.4248 342.0
77.7089 275.0
77.993 282.0
78.2771 285.0
78.5612 275.0
78.8453 260.0
79.1294 298.0
79.4134 235.0
79.6975 245.0
79.9816 290.0
80.2657 275.0
80.5498 216.0
80.8339 269.0
81.118 244.0
81.4021 287.0
81.6862 238.0
81.9703 247.0
82.2544 226.0
82.5385 241.0
82.8225 235.0
83.1066 244.0
83.3907 259.0
83.6748 220.0
83.9589 251.0
84.243 268.0
84.5271 229.0
84.8112 229.0
85.0953 203.0
85.3794 237.0
85.6635 211.0
85.9476 201.0
86.2316 184.0
86.5157 197.0
86.7998 207.0
87.0839 209.0
87.368 212.0
87.6521 198.0
87.9362 209.0
88.2203 223.0
88.5044 239.0
88.7885 170.0
89.0726 191.0
89.3567 203.0
89.6407 192.0
89.9248 179.0
89.9415 191.0