File: code/XRD_Analysis/External Sources/Fabian/SAPO-18/5-90_step0_016_1h_20240108_SAPO-18_anderer_sample_holder_fein.xy
4.98146 1759.0
5.26555 1590.0
5.54964 1435.0
5.83373 1404.0
6.11782 1213.0
6.40191 1123.0
6.68601 1093.0
6.9701 1106.0
7.25419 1069.0
7.53828 966.0
7.82237 951.0
8.10646 904.0
8.39055 934.0
8.67465 940.0
8.95874 1064.0
9.24283 1831.0
9.52692 12416.0
9.81101 1457.0
10.0951 964.0
10.3792 1255.0
10.6633 1601.0
10.9474 1306.0
11.2315 775.0
11.5156 685.0
11.7997 684.0
12.0837 730.0
12.3678 675.0
12.6519 824.0
12.936 1262.0
13.2201 763.0
13.5042 644.0
13.7883 763.0
14.0724 1425.0
14.3565 772.0
14.6406 1004.0
14.9247 1089.0
15.2088 836.0
15.4928 1328.0
15.7769 2753.0
16.061 3115.0
16.3451 1570.0
16.6292 2374.0
16.9133 8506.0
17.1974 4127.0
17.4815 1671.0
17.7656 1479.0
18.0497 847.0
18.3338 719.0
18.6179 682.0
18.9019 863.0
19.186 1351.0
19.4701 1721.0
19.7542 1850.0
20.0383 3395.0
20.3224 2116.0
20.6065 3954.0
20.8906 3417.0
21.1747 3240.0
21.4588 2109.0
21.7429 1638.0
22.0269 1706.0
22.311 891.0
22.5951 1075.0
22.8792 815.0
23.1633 856.0
23.4474 1230.0
23.7315 2189.0
24.0156 2752.0
24.2997 1799.0
24.5838 1323.0
24.8679 1075.0
25.152 979.0
25.436 1094.0
25.7201 1666.0
26.0042 1634.0
26.2883 3100.0
26.5724 1596.0
26.8565 1289.0
27.1406 833.0
27.4247 1060.0
27.7088 1765.0
27.9929 1964.0
28.277 1104.0
28.5611 783.0
28.8451 759.0
29.1292 1089.0
29.4133 1066.0
29.6974 1260.0
29.9815 1715.0
30.2656 2230.0
30.5497 1722.0
30.8338 2523.0
31.1179 2730.0
31.402 1385.0
31.6861 1478.0
31.9702 1736.0
32.2542 2142.0
32.5383 2043.0
32.8224 1360.0
33.1065 965.0
33.3906 901.0
33.6747 683.0
33.9588 580.0
34.2429 674.0
34.527 808.0
34.8111 679.0
35.0952 572.0
35.3793 490.0
35.6633 493.0
35.9474 691.0
36.2315 841.0
36.5156 668.0
36.7997 506.0
37.0838 476.0
37.3679 464.0
37.652 461.0
37.9361 475.0
38.2202 492.0
38.5043 490.0
38.7884 590.0
39.0724 629.0
39.3565 679.0
39.6406 558.0
39.9247 567.0
40.2088 620.0
40.4929 495.0
40.777 520.0
41.0611 584.0
41.3452 673.0
41.6293 659.0
41.9134 572.0
42.1975 418.0
42.4815 489.0
42.7656 597.0
43.0497 810.0
43.3338 742.0
43.6179 555.0
43.902 555.0
44.1861 599.0
44.4702 502.0
44.7543 502.0
45.0384 465.0
45.3225 429.0
45.6066 466.0
45.8906 479.0
46.1747 445.0
46.4588 449.0
46.7429 455.0
47.027 445.0
47.3111 417.0
47.5952 506.0
47.8793 482.0
48.1634 584.0
48.4475 571.0
48.7316 918.0
49.0156 1123.0
49.2997 922.0
49.5838 820.0
49.8679 863.0
50.152 852.0
50.4361 690.0
50.7202 754.0
51.0043 847.0
51.2884 767.0
51.5725 600.0
51.8566 567.0
52.1407 601.0
52.4247 594.0
52.7088 595.0
52.9929 540.0
53.277 563.0
53.5611 479.0
53.8452 507.0
54.1293 586.0
54.4134 575.0
54.6975 697.0
54.9816 678.0
55.2657 793.0
55.5498 696.0
55.8338 682.0
56.1179 560.0
56.402 492.0
56.6861 431.0
56.9702 479.0
57.2543 412.0
57.5384 424.0
57.8225 393.0
58.1066 401.0
58.3907 473.0
58.6748 463.0
58.9589 495.0
59.2429 551.0
59.527 547.0
59.8111 501.0
60.0952 582.0
60.3793 526.0
60.6634 535.0
60.9475 485.0
61.2316 492.0
61.5157 495.0
61.7998 447.0
62.0839 491.0
62.368 487.0
62.652 477.0
62.9361 495.0
63.2202 486.0
63.5043 477.0
63.7884 503.0
64.0725 492.0
64.3566 469.0
64.6407 418.0
64.9248 441.0
65.2089 433.0
65.493 494.0
65.7771 494.0
66.0611 540.0
66.3452 650.0
66.6293 748.0
66.9134 689.0
67.1975 575.0
67.4816 537.0
67.7657 543.0
68.0498 470.0
68.3339 462.0
68.618 490.0
68.9021 442.0
69.1862 492.0
69.4702 529.0
69.7543 720.0
70.0384 728.0
70.3225 576.0
70.6066 524.0
70.8907 505.0
71.1748 505.0
71.4589 526.0
71.743 503.0
72.0271 545.0
72.3112 542.0
72.5952 578.0
72.8793 558.0
73.1634 533.0
73.4475 500.0
73.7316 483.0
74.0157 445.0
74.2998 425.0
74.5839 440.0
74.868 462.0
75.1521 443.0
75.4362 408.0
75.7203 438.0
76.0043 428.0
76.2884 426.0
76.5725 382.0
76.8566 416.0
77.1407 441.0
77.4248 410.0
77.7089 423.0
77.993 351.0
78.2771 389.0
78.5612 370.0
78.8453 381.0
79.1294 395.0
79.4134 400.0
79.6975 392.0
79.9816 384.0
80.2657 384.0
80.5498 439.0
80.8339 441.0
81.118 404.0
81.4021 371.0
81.6862 376.0
81.9703 354.0
82.2544 355.0
82.5385 338.0
82.8225 397.0
83.1066 386.0
83.3907 331.0
83.6748 337.0
83.9589 313.0
84.243 333.0
84.5271 323.0
84.8112 288.0
85.0953 328.0
85.3794 337.0
85.6635 276.0
85.9476 304.0
86.2316 278.0
86.5157 301.0
86.7998 260.0
87.0839 302.0
87.368 268.0
87.6521 272.0
87.9362 259.0
88.2203 315.0
88.5044 256.0
88.7885 292.0
89.0726 271.0
89.3567 261.0
89.6407 243.0
89.9248 235.0
89.9415 232.0