File: code/XRD_Analysis/Zeolites/data_files/SAPO-14/calc/20241023_SAPO-14-3_calc_Probe-1.xy
4.98146 928.0
5.26555 880.0
5.54964 834.0
5.83373 790.0
6.11782 725.0
6.40191 755.0
6.68601 679.0
6.9701 662.0
7.25419 694.0
7.53828 664.0
7.82237 651.0
8.10646 679.0
8.39055 606.0
8.67465 926.0
8.95874 5169.0
9.24283 652.0
9.52692 600.0
9.81101 525.0
10.0951 502.0
10.3792 480.0
10.6633 549.0
10.9474 847.0
11.2315 1387.0
11.5156 520.0
11.7997 711.0
12.0837 1270.0
12.3678 445.0
12.6519 493.0
12.936 568.0
13.2201 4518.0
13.5042 819.0
13.7883 2747.0
14.0724 839.0
14.3565 561.0
14.6406 386.0
14.9247 355.0
15.2088 350.0
15.4928 1094.0
15.7769 475.0
16.061 388.0
16.3451 877.0
16.6292 524.0
16.9133 378.0
17.1974 333.0
17.4815 411.0
17.7656 637.0
18.0497 2389.0
18.3338 1244.0
18.6179 451.0
18.9019 646.0
19.186 573.0
19.4701 731.0
19.7542 1270.0
20.0383 503.0
20.3224 845.0
20.6065 1581.0
20.8906 842.0
21.1747 1323.0
21.4588 2070.0
21.7429 1833.0
22.0269 1834.0
22.311 701.0
22.5951 1134.0
22.8792 1178.0
23.1633 738.0
23.4474 938.0
23.7315 554.0
24.0156 522.0
24.2997 729.0
24.5838 401.0
24.8679 1236.0
25.152 555.0
25.436 696.0
25.7201 696.0
26.0042 663.0
26.2883 1214.0
26.5724 1921.0
26.8565 856.0
27.1406 2588.0
27.4247 3187.0
27.7088 1156.0
27.9929 720.0
28.277 467.0
28.5611 648.0
28.8451 721.0
29.1292 3662.0
29.4133 1113.0
29.6974 2022.0
29.9815 1451.0
30.2656 1220.0
30.5497 629.0
30.8338 1398.0
31.1179 982.0
31.402 588.0
31.6861 525.0
31.9702 1362.0
32.2542 686.0
32.5383 574.0
32.8224 762.0
33.1065 714.0
33.3906 735.0
33.6747 411.0
33.9588 417.0
34.2429 480.0
34.527 306.0
34.8111 275.0
35.0952 427.0
35.3793 467.0
35.6633 581.0
35.9474 442.0
36.2315 586.0
36.5156 531.0
36.7997 541.0
37.0838 433.0
37.3679 422.0
37.652 302.0
37.9361 269.0
38.2202 385.0
38.5043 338.0
38.7884 264.0
39.0724 328.0
39.3565 266.0
39.6406 334.0
39.9247 361.0
40.2088 369.0
40.4929 332.0
40.777 275.0
41.0611 289.0
41.3452 219.0
41.6293 275.0
41.9134 412.0
42.1975 380.0
42.4815 361.0
42.7656 289.0
43.0497 240.0
43.3338 290.0
43.6179 307.0
43.902 260.0
44.1861 294.0
44.4702 356.0
44.7543 269.0
45.0384 208.0
45.3225 247.0
45.6066 376.0
45.8906 310.0
46.1747 349.0
46.4588 230.0
46.7429 308.0
47.027 247.0
47.3111 322.0
47.5952 290.0
47.8793 287.0
48.1634 239.0
48.4475 246.0
48.7316 395.0
49.0156 358.0
49.2997 318.0
49.5838 300.0
49.8679 236.0
50.152 247.0
50.4361 212.0
50.7202 309.0
51.0043 326.0
51.2884 221.0
51.5725 349.0
51.8566 284.0
52.1407 255.0
52.4247 251.0
52.7088 292.0
52.9929 258.0
53.277 206.0
53.5611 262.0
53.8452 308.0
54.1293 241.0
54.4134 286.0
54.6975 262.0
54.9816 336.0
55.2657 317.0
55.5498 337.0
55.8338 379.0
56.1179 314.0
56.402 243.0
56.6861 282.0
56.9702 253.0
57.2543 297.0
57.5384 275.0
57.8225 294.0
58.1066 236.0
58.3907 240.0
58.6748 258.0
58.9589 163.0
59.2429 268.0
59.527 260.0
59.8111 268.0
60.0952 246.0
60.3793 264.0
60.6634 248.0
60.9475 248.0
61.2316 209.0
61.5157 209.0
61.7998 209.0
62.0839 216.0
62.368 222.0
62.652 174.0
62.9361 211.0
63.2202 196.0
63.5043 252.0
63.7884 227.0
64.0725 222.0
64.3566 184.0
64.6407 203.0
64.9248 216.0
65.2089 257.0
65.493 220.0
65.7771 256.0
66.0611 226.0
66.3452 216.0
66.6293 226.0
66.9134 215.0
67.1975 263.0
67.4816 259.0
67.7657 239.0
68.0498 208.0
68.3339 198.0
68.618 244.0
68.9021 206.0
69.1862 193.0
69.4702 185.0
69.7543 239.0
70.0384 226.0
70.3225 260.0
70.6066 238.0
70.8907 242.0
71.1748 211.0
71.4589 201.0
71.743 208.0
72.0271 190.0
72.3112 183.0
72.5952 165.0
72.8793 172.0
73.1634 193.0
73.4475 174.0
73.7316 160.0
74.0157 184.0
74.2998 192.0
74.5839 211.0
74.868 190.0
75.1521 184.0
75.4362 183.0
75.7203 183.0
76.0043 192.0
76.2884 160.0
76.5725 143.0
76.8566 167.0
77.1407 192.0
77.4248 207.0
77.7089 178.0
77.993 191.0
78.2771 196.0
78.5612 179.0
78.8453 155.0
79.1294 157.0
79.4134 158.0
79.6975 172.0
79.9816 158.0
80.2657 161.0
80.5498 147.0
80.8339 155.0
81.118 131.0
81.4021 147.0
81.6862 152.0
81.9703 163.0
82.2544 125.0
82.5385 152.0
82.8225 158.0
83.1066 136.0
83.3907 117.0
83.6748 119.0
83.9589 149.0
84.243 133.0
84.5271 125.0
84.8112 128.0
85.0953 122.0
85.3794 143.0
85.6635 132.0
85.9476 119.0
86.2316 118.0
86.5157 148.0
86.7998 130.0
87.0839 115.0
87.368 128.0
87.6521 107.0
87.9362 106.0
88.2203 114.0
88.5044 99.0
88.7885 103.0
89.0726 122.0
89.3567 112.0
89.6407 97.0
89.9248 134.0
89.9415 113.0