File: code/XRD_Analysis/Zeolites/data_files/SAPO-14/calc/20241105_SAPO-14-4_calc_Probe-4.xy
4.98146 947.0
5.26555 925.0
5.54964 844.0
5.83373 804.0
6.11782 795.0
6.40191 682.0
6.68601 703.0
6.9701 694.0
7.25419 654.0
7.53828 646.0
7.82237 631.0
8.10646 1085.0
8.39055 668.0
8.67465 518.0
8.95874 560.0
9.24283 566.0
9.52692 2283.0
9.81101 938.0
10.0951 472.0
10.3792 429.0
10.6633 474.0
10.9474 472.0
11.2315 455.0
11.5156 410.0
11.7997 417.0
12.0837 351.0
12.3678 389.0
12.6519 424.0
12.936 1095.0
13.2201 776.0
13.5042 389.0
13.7883 361.0
14.0724 490.0
14.3565 310.0
14.6406 361.0
14.9247 354.0
15.2088 383.0
15.4928 414.0
15.7769 1142.0
16.061 920.0
16.3451 554.0
16.6292 369.0
16.9133 381.0
17.1974 369.0
17.4815 344.0
17.7656 631.0
18.0497 583.0
18.3338 397.0
18.6179 371.0
18.9019 381.0
19.186 569.0
19.4701 463.0
19.7542 503.0
20.0383 574.0
20.3224 1710.0
20.6065 913.0
20.8906 1984.0
21.1747 2196.0
21.4588 2103.0
21.7429 864.0
22.0269 970.0
22.311 2599.0
22.5951 1710.0
22.8792 1665.0
23.1633 1975.0
23.4474 2524.0
23.7315 789.0
24.0156 581.0
24.2997 658.0
24.5838 705.0
24.8679 758.0
25.152 1546.0
25.436 665.0
25.7201 599.0
26.0042 738.0
26.2883 1595.0
26.5724 1286.0
26.8565 801.0
27.1406 676.0
27.4247 632.0
27.7088 677.0
27.9929 850.0
28.277 850.0
28.5611 674.0
28.8451 766.0
29.1292 1258.0
29.4133 745.0
29.6974 841.0
29.9815 668.0
30.2656 606.0
30.5497 633.0
30.8338 1638.0
31.1179 1177.0
31.402 1187.0
31.6861 740.0
31.9702 855.0
32.2542 551.0
32.5383 606.0
32.8224 967.0
33.1065 758.0
33.3906 526.0
33.6747 615.0
33.9588 503.0
34.2429 528.0
34.527 507.0
34.8111 917.0
35.0952 523.0
35.3793 500.0
35.6633 502.0
35.9474 466.0
36.2315 751.0
36.5156 598.0
36.7997 413.0
37.0838 426.0
37.3679 474.0
37.652 483.0
37.9361 736.0
38.2202 642.0
38.5043 571.0
38.7884 441.0
39.0724 367.0
39.3565 454.0
39.6406 453.0
39.9247 411.0
40.2088 444.0
40.4929 395.0
40.777 375.0
41.0611 387.0
41.3452 402.0
41.6293 384.0
41.9134 408.0
42.1975 398.0
42.4815 363.0
42.7656 408.0
43.0497 459.0
43.3338 500.0
43.6179 417.0
43.902 450.0
44.1861 380.0
44.4702 385.0
44.7543 428.0
45.0384 500.0
45.3225 458.0
45.6066 402.0
45.8906 342.0
46.1747 376.0
46.4588 363.0
46.7429 336.0
47.027 365.0
47.3111 368.0
47.5952 321.0
47.8793 369.0
48.1634 453.0
48.4475 510.0
48.7316 398.0
49.0156 404.0
49.2997 559.0
49.5838 478.0
49.8679 431.0
50.152 417.0
50.4361 383.0
50.7202 330.0
51.0043 449.0
51.2884 487.0
51.5725 471.0
51.8566 362.0
52.1407 375.0
52.4247 428.0
52.7088 396.0
52.9929 353.0
53.277 428.0
53.5611 337.0
53.8452 432.0
54.1293 403.0
54.4134 365.0
54.6975 408.0
54.9816 424.0
55.2657 410.0
55.5498 451.0
55.8338 384.0
56.1179 357.0
56.402 425.0
56.6861 448.0
56.9702 415.0
57.2543 376.0
57.5384 381.0
57.8225 395.0
58.1066 505.0
58.3907 476.0
58.6748 420.0
58.9589 512.0
59.2429 490.0
59.527 409.0
59.8111 373.0
60.0952 440.0
60.3793 387.0
60.6634 388.0
60.9475 369.0
61.2316 358.0
61.5157 364.0
61.7998 395.0
62.0839 383.0
62.368 382.0
62.652 345.0
62.9361 383.0
63.2202 331.0
63.5043 347.0
63.7884 377.0
64.0725 388.0
64.3566 340.0
64.6407 333.0
64.9248 323.0
65.2089 362.0
65.493 365.0
65.7771 355.0
66.0611 364.0
66.3452 379.0
66.6293 415.0
66.9134 400.0
67.1975 378.0
67.4816 346.0
67.7657 344.0
68.0498 326.0
68.3339 378.0
68.618 299.0
68.9021 309.0
69.1862 314.0
69.4702 357.0
69.7543 381.0
70.0384 341.0
70.3225 340.0
70.6066 339.0
70.8907 321.0
71.1748 347.0
71.4589 341.0
71.743 330.0
72.0271 370.0
72.3112 331.0
72.5952 394.0
72.8793 336.0
73.1634 400.0
73.4475 333.0
73.7316 326.0
74.0157 305.0
74.2998 345.0
74.5839 304.0
74.868 310.0
75.1521 323.0
75.4362 326.0
75.7203 338.0
76.0043 333.0
76.2884 349.0
76.5725 349.0
76.8566 319.0
77.1407 306.0
77.4248 317.0
77.7089 308.0
77.993 306.0
78.2771 298.0
78.5612 331.0
78.8453 328.0
79.1294 291.0
79.4134 280.0
79.6975 244.0
79.9816 332.0
80.2657 320.0
80.5498 251.0
80.8339 291.0
81.118 320.0
81.4021 274.0
81.6862 263.0
81.9703 282.0
82.2544 255.0
82.5385 286.0
82.8225 261.0
83.1066 254.0
83.3907 252.0
83.6748 211.0
83.9589 230.0
84.243 219.0
84.5271 227.0
84.8112 230.0
85.0953 214.0
85.3794 205.0
85.6635 191.0
85.9476 179.0
86.2316 206.0
86.5157 206.0
86.7998 190.0
87.0839 197.0
87.368 188.0
87.6521 185.0
87.9362 168.0
88.2203 183.0
88.5044 164.0
88.7885 192.0
89.0726 196.0
89.3567 189.0
89.6407 195.0
89.9248 200.0
89.9415 181.0