File: code/XRD_Analysis/Zeolites/data_files/SAPO-14/calc/20241105_SAPO-14-4_calc_Probe-2.xy
4.98146 1026.0
5.26555 926.0
5.54964 875.0
5.83373 801.0
6.11782 734.0
6.40191 709.0
6.68601 678.0
6.9701 659.0
7.25419 662.0
7.53828 710.0
7.82237 743.0
8.10646 605.0
8.39055 638.0
8.67465 714.0
8.95874 11470.0
9.24283 872.0
9.52692 1894.0
9.81101 504.0
10.0951 466.0
10.3792 504.0
10.6633 480.0
10.9474 910.0
11.2315 1576.0
11.5156 411.0
11.7997 505.0
12.0837 882.0
12.3678 478.0
12.6519 459.0
12.936 1009.0
13.2201 3312.0
13.5042 695.0
13.7883 1806.0
14.0724 1162.0
14.3565 576.0
14.6406 396.0
14.9247 363.0
15.2088 325.0
15.4928 493.0
15.7769 477.0
16.061 512.0
16.3451 1035.0
16.6292 545.0
16.9133 332.0
17.1974 332.0
17.4815 432.0
17.7656 618.0
18.0497 6695.0
18.3338 1492.0
18.6179 411.0
18.9019 470.0
19.186 633.0
19.4701 443.0
19.7542 1823.0
20.0383 451.0
20.3224 555.0
20.6065 2018.0
20.8906 725.0
21.1747 1297.0
21.4588 2031.0
21.7429 1447.0
22.0269 2150.0
22.311 877.0
22.5951 1541.0
22.8792 669.0
23.1633 748.0
23.4474 842.0
23.7315 505.0
24.0156 631.0
24.2997 553.0
24.5838 387.0
24.8679 637.0
25.152 849.0
25.436 807.0
25.7201 567.0
26.0042 805.0
26.2883 552.0
26.5724 1659.0
26.8565 910.0
27.1406 684.0
27.4247 6718.0
27.7088 1310.0
27.9929 594.0
28.277 510.0
28.5611 572.0
28.8451 644.0
29.1292 2615.0
29.4133 840.0
29.6974 665.0
29.9815 2674.0
30.2656 1021.0
30.5497 614.0
30.8338 1846.0
31.1179 1032.0
31.402 528.0
31.6861 526.0
31.9702 401.0
32.2542 954.0
32.5383 521.0
32.8224 368.0
33.1065 667.0
33.3906 318.0
33.6747 813.0
33.9588 442.0
34.2429 513.0
34.527 244.0
34.8111 297.0
35.0952 282.0
35.3793 422.0
35.6633 561.0
35.9474 518.0
36.2315 425.0
36.5156 453.0
36.7997 854.0
37.0838 372.0
37.3679 275.0
37.652 397.0
37.9361 221.0
38.2202 304.0
38.5043 284.0
38.7884 276.0
39.0724 295.0
39.3565 276.0
39.6406 320.0
39.9247 378.0
40.2088 500.0
40.4929 268.0
40.777 294.0
41.0611 245.0
41.3452 232.0
41.6293 248.0
41.9134 412.0
42.1975 285.0
42.4815 262.0
42.7656 288.0
43.0497 195.0
43.3338 224.0
43.6179 272.0
43.902 332.0
44.1861 272.0
44.4702 280.0
44.7543 241.0
45.0384 263.0
45.3225 227.0
45.6066 259.0
45.8906 372.0
46.1747 396.0
46.4588 297.0
46.7429 253.0
47.027 213.0
47.3111 222.0
47.5952 233.0
47.8793 480.0
48.1634 239.0
48.4475 247.0
48.7316 308.0
49.0156 319.0
49.2997 307.0
49.5838 266.0
49.8679 199.0
50.152 261.0
50.4361 176.0
50.7202 239.0
51.0043 335.0
51.2884 262.0
51.5725 201.0
51.8566 241.0
52.1407 315.0
52.4247 220.0
52.7088 226.0
52.9929 279.0
53.277 224.0
53.5611 248.0
53.8452 260.0
54.1293 294.0
54.4134 209.0
54.6975 236.0
54.9816 361.0
55.2657 233.0
55.5498 290.0
55.8338 314.0
56.1179 264.0
56.402 345.0
56.6861 272.0
56.9702 246.0
57.2543 243.0
57.5384 239.0
57.8225 245.0
58.1066 259.0
58.3907 225.0
58.6748 253.0
58.9589 211.0
59.2429 227.0
59.527 239.0
59.8111 220.0
60.0952 219.0
60.3793 256.0
60.6634 272.0
60.9475 220.0
61.2316 252.0
61.5157 199.0
61.7998 170.0
62.0839 165.0
62.368 192.0
62.652 200.0
62.9361 236.0
63.2202 172.0
63.5043 167.0
63.7884 228.0
64.0725 198.0
64.3566 181.0
64.6407 237.0
64.9248 252.0
65.2089 191.0
65.493 257.0
65.7771 231.0
66.0611 251.0
66.3452 228.0
66.6293 214.0
66.9134 222.0
67.1975 236.0
67.4816 251.0
67.7657 238.0
68.0498 213.0
68.3339 237.0
68.618 195.0
68.9021 190.0
69.1862 190.0
69.4702 155.0
69.7543 166.0
70.0384 170.0
70.3225 223.0
70.6066 217.0
70.8907 223.0
71.1748 233.0
71.4589 207.0
71.743 200.0
72.0271 193.0
72.3112 170.0
72.5952 186.0
72.8793 195.0
73.1634 181.0
73.4475 146.0
73.7316 178.0
74.0157 205.0
74.2998 179.0
74.5839 174.0
74.868 205.0
75.1521 186.0
75.4362 177.0
75.7203 180.0
76.0043 180.0
76.2884 179.0
76.5725 183.0
76.8566 176.0
77.1407 189.0
77.4248 145.0
77.7089 190.0
77.993 174.0
78.2771 159.0
78.5612 154.0
78.8453 146.0
79.1294 152.0
79.4134 147.0
79.6975 123.0
79.9816 122.0
80.2657 130.0
80.5498 143.0
80.8339 122.0
81.118 119.0
81.4021 158.0
81.6862 134.0
81.9703 134.0
82.2544 129.0
82.5385 133.0
82.8225 120.0
83.1066 142.0
83.3907 121.0
83.6748 132.0
83.9589 142.0
84.243 101.0
84.5271 129.0
84.8112 141.0
85.0953 143.0
85.3794 123.0
85.6635 134.0
85.9476 118.0
86.2316 121.0
86.5157 121.0
86.7998 131.0
87.0839 110.0
87.368 118.0
87.6521 120.0
87.9362 113.0
88.2203 118.0
88.5044 102.0
88.7885 117.0
89.0726 117.0
89.3567 95.0
89.6407 104.0
89.9248 120.0
89.9415 113.0