File: code/XRD_Analysis/Zeolites/data_files/SAPO-14/calc/20241028_SAPO-14-3-calc-Probe-3.xy
4.98146 961.0
5.26555 898.0
5.54964 859.0
5.83373 814.0
6.11782 783.0
6.40191 746.0
6.68601 688.0
6.9701 783.0
7.25419 670.0
7.53828 630.0
7.82237 661.0
8.10646 634.0
8.39055 673.0
8.67465 986.0
8.95874 5129.0
9.24283 653.0
9.52692 1905.0
9.81101 574.0
10.0951 514.0
10.3792 487.0
10.6633 453.0
10.9474 697.0
11.2315 1379.0
11.5156 554.0
11.7997 753.0
12.0837 731.0
12.3678 460.0
12.6519 486.0
12.936 750.0
13.2201 2717.0
13.5042 808.0
13.7883 1588.0
14.0724 922.0
14.3565 568.0
14.6406 448.0
14.9247 430.0
15.2088 424.0
15.4928 888.0
15.7769 585.0
16.061 516.0
16.3451 738.0
16.6292 516.0
16.9133 387.0
17.1974 442.0
17.4815 526.0
17.7656 734.0
18.0497 2616.0
18.3338 1088.0
18.6179 532.0
18.9019 799.0
19.186 586.0
19.4701 791.0
19.7542 1246.0
20.0383 512.0
20.3224 518.0
20.6065 1216.0
20.8906 787.0
21.1747 1150.0
21.4588 1484.0
21.7429 1399.0
22.0269 2081.0
22.311 887.0
22.5951 1314.0
22.8792 821.0
23.1633 744.0
23.4474 1003.0
23.7315 604.0
24.0156 672.0
24.2997 705.0
24.5838 545.0
24.8679 1173.0
25.152 803.0
25.436 805.0
25.7201 768.0
26.0042 722.0
26.2883 1067.0
26.5724 2108.0
26.8565 1057.0
27.1406 2658.0
27.4247 2963.0
27.7088 1273.0
27.9929 763.0
28.277 635.0
28.5611 832.0
28.8451 844.0
29.1292 3309.0
29.4133 1214.0
29.6974 2344.0
29.9815 1778.0
30.2656 1395.0
30.5497 797.0
30.8338 1933.0
31.1179 901.0
31.402 700.0
31.6861 636.0
31.9702 1170.0
32.2542 781.0
32.5383 664.0
32.8224 838.0
33.1065 724.0
33.3906 907.0
33.6747 548.0
33.9588 592.0
34.2429 563.0
34.527 404.0
34.8111 382.0
35.0952 425.0
35.3793 479.0
35.6633 635.0
35.9474 590.0
36.2315 611.0
36.5156 719.0
36.7997 618.0
37.0838 507.0
37.3679 453.0
37.652 367.0
37.9361 355.0
38.2202 417.0
38.5043 348.0
38.7884 349.0
39.0724 365.0
39.3565 329.0
39.6406 341.0
39.9247 472.0
40.2088 471.0
40.4929 349.0
40.777 404.0
41.0611 306.0
41.3452 294.0
41.6293 335.0
41.9134 438.0
42.1975 409.0
42.4815 372.0
42.7656 336.0
43.0497 252.0
43.3338 326.0
43.6179 383.0
43.902 349.0
44.1861 379.0
44.4702 423.0
44.7543 383.0
45.0384 276.0
45.3225 357.0
45.6066 409.0
45.8906 325.0
46.1747 432.0
46.4588 356.0
46.7429 381.0
47.027 302.0
47.3111 400.0
47.5952 382.0
47.8793 408.0
48.1634 317.0
48.4475 347.0
48.7316 447.0
49.0156 429.0
49.2997 395.0
49.5838 401.0
49.8679 333.0
50.152 298.0
50.4361 283.0
50.7202 397.0
51.0043 400.0
51.2884 347.0
51.5725 346.0
51.8566 324.0
52.1407 338.0
52.4247 326.0
52.7088 395.0
52.9929 297.0
53.277 273.0
53.5611 385.0
53.8452 410.0
54.1293 319.0
54.4134 293.0
54.6975 363.0
54.9816 453.0
55.2657 413.0
55.5498 393.0
55.8338 414.0
56.1179 455.0
56.402 307.0
56.6861 348.0
56.9702 304.0
57.2543 352.0
57.5384 385.0
57.8225 348.0
58.1066 330.0
58.3907 298.0
58.6748 302.0
58.9589 257.0
59.2429 351.0
59.527 285.0
59.8111 301.0
60.0952 323.0
60.3793 357.0
60.6634 368.0
60.9475 332.0
61.2316 282.0
61.5157 232.0
61.7998 245.0
62.0839 266.0
62.368 302.0
62.652 320.0
62.9361 273.0
63.2202 273.0
63.5043 269.0
63.7884 278.0
64.0725 291.0
64.3566 279.0
64.6407 267.0
64.9248 314.0
65.2089 307.0
65.493 311.0
65.7771 329.0
66.0611 308.0
66.3452 289.0
66.6293 290.0
66.9134 294.0
67.1975 386.0
67.4816 357.0
67.7657 307.0
68.0498 278.0
68.3339 283.0
68.618 279.0
68.9021 279.0
69.1862 266.0
69.4702 219.0
69.7543 256.0
70.0384 299.0
70.3225 307.0
70.6066 315.0
70.8907 264.0
71.1748 222.0
71.4589 275.0
71.743 250.0
72.0271 257.0
72.3112 216.0
72.5952 228.0
72.8793 232.0
73.1634 256.0
73.4475 261.0
73.7316 241.0
74.0157 238.0
74.2998 255.0
74.5839 232.0
74.868 238.0
75.1521 252.0
75.4362 263.0
75.7203 244.0
76.0043 243.0
76.2884 248.0
76.5725 186.0
76.8566 215.0
77.1407 263.0
77.4248 236.0
77.7089 255.0
77.993 235.0
78.2771 213.0
78.5612 204.0
78.8453 215.0
79.1294 210.0
79.4134 203.0
79.6975 208.0
79.9816 212.0
80.2657 209.0
80.5498 173.0
80.8339 186.0
81.118 186.0
81.4021 182.0
81.6862 186.0
81.9703 186.0
82.2544 184.0
82.5385 188.0
82.8225 179.0
83.1066 190.0
83.3907 155.0
83.6748 160.0
83.9589 173.0
84.243 177.0
84.5271 139.0
84.8112 169.0
85.0953 159.0
85.3794 162.0
85.6635 148.0
85.9476 158.0
86.2316 186.0
86.5157 148.0
86.7998 150.0
87.0839 145.0
87.368 133.0
87.6521 146.0
87.9362 129.0
88.2203 145.0
88.5044 149.0
88.7885 130.0
89.0726 141.0
89.3567 151.0
89.6407 137.0
89.9248 142.0
89.9415 123.0