File: code/XRD_Analysis/Zeolites/data_files/SAPO-14/calc/20241113_SAPO-14-4_calc_Probe-1.xy
4.98146 937.0
5.26555 895.0
5.54964 879.0
5.83373 815.0
6.11782 814.0
6.40191 667.0
6.68601 761.0
6.9701 672.0
7.25419 654.0
7.53828 631.0
7.82237 578.0
8.10646 598.0
8.39055 557.0
8.67465 744.0
8.95874 4729.0
9.24283 800.0
9.52692 853.0
9.81101 494.0
10.0951 495.0
10.3792 455.0
10.6633 434.0
10.9474 622.0
11.2315 1191.0
11.5156 464.0
11.7997 502.0
12.0837 2143.0
12.3678 357.0
12.6519 392.0
12.936 419.0
13.2201 4582.0
13.5042 522.0
13.7883 5104.0
14.0724 877.0
14.3565 741.0
14.6406 424.0
14.9247 316.0
15.2088 336.0
15.4928 319.0
15.7769 1263.0
16.061 356.0
16.3451 770.0
16.6292 454.0
16.9133 332.0
17.1974 318.0
17.4815 361.0
17.7656 430.0
18.0497 3890.0
18.3338 1588.0
18.6179 545.0
18.9019 448.0
19.186 845.0
19.4701 440.0
19.7542 1791.0
20.0383 439.0
20.3224 457.0
20.6065 1594.0
20.8906 609.0
21.1747 2204.0
21.4588 1647.0
21.7429 1196.0
22.0269 3026.0
22.311 1159.0
22.5951 1026.0
22.8792 1034.0
23.1633 556.0
23.4474 1611.0
23.7315 619.0
24.0156 566.0
24.2997 774.0
24.5838 446.0
24.8679 607.0
25.152 940.0
25.436 783.0
25.7201 604.0
26.0042 825.0
26.2883 573.0
26.5724 2715.0
26.8565 1662.0
27.1406 947.0
27.4247 6063.0
27.7088 2134.0
27.9929 648.0
28.277 746.0
28.5611 674.0
28.8451 1072.0
29.1292 1172.0
29.4133 1772.0
29.6974 778.0
29.9815 3907.0
30.2656 1953.0
30.5497 870.0
30.8338 1607.0
31.1179 1804.0
31.402 634.0
31.6861 877.0
31.9702 565.0
32.2542 1820.0
32.5383 835.0
32.8224 544.0
33.1065 1466.0
33.3906 509.0
33.6747 1125.0
33.9588 603.0
34.2429 707.0
34.527 426.0
34.8111 431.0
35.0952 367.0
35.3793 631.0
35.6633 710.0
35.9474 572.0
36.2315 849.0
36.5156 538.0
36.7997 1117.0
37.0838 547.0
37.3679 418.0
37.652 576.0
37.9361 373.0
38.2202 391.0
38.5043 386.0
38.7884 384.0
39.0724 472.0
39.3565 431.0
39.6406 440.0
39.9247 586.0
40.2088 763.0
40.4929 391.0
40.777 425.0
41.0611 358.0
41.3452 333.0
41.6293 328.0
41.9134 549.0
42.1975 415.0
42.4815 524.0
42.7656 400.0
43.0497 329.0
43.3338 329.0
43.6179 430.0
43.902 571.0
44.1861 424.0
44.4702 450.0
44.7543 429.0
45.0384 420.0
45.3225 369.0
45.6066 428.0
45.8906 548.0
46.1747 472.0
46.4588 533.0
46.7429 449.0
47.027 404.0
47.3111 325.0
47.5952 383.0
47.8793 588.0
48.1634 535.0
48.4475 373.0
48.7316 435.0
49.0156 563.0
49.2997 506.0
49.5838 472.0
49.8679 366.0
50.152 371.0
50.4361 384.0
50.7202 356.0
51.0043 447.0
51.2884 460.0
51.5725 395.0
51.8566 407.0
52.1407 429.0
52.4247 425.0
52.7088 385.0
52.9929 447.0
53.277 380.0
53.5611 392.0
53.8452 443.0
54.1293 460.0
54.4134 350.0
54.6975 378.0
54.9816 589.0
55.2657 549.0
55.5498 539.0
55.8338 573.0
56.1179 447.0
56.402 584.0
56.6861 425.0
56.9702 447.0
57.2543 371.0
57.5384 414.0
57.8225 496.0
58.1066 450.0
58.3907 400.0
58.6748 423.0
58.9589 365.0
59.2429 311.0
59.527 366.0
59.8111 366.0
60.0952 345.0
60.3793 458.0
60.6634 526.0
60.9475 427.0
61.2316 386.0
61.5157 332.0
61.7998 326.0
62.0839 309.0
62.368 321.0
62.652 347.0
62.9361 348.0
63.2202 278.0
63.5043 295.0
63.7884 315.0
64.0725 384.0
64.3566 329.0
64.6407 323.0
64.9248 357.0
65.2089 342.0
65.493 418.0
65.7771 385.0
66.0611 357.0
66.3452 391.0
66.6293 389.0
66.9134 340.0
67.1975 397.0
67.4816 438.0
67.7657 428.0
68.0498 326.0
68.3339 370.0
68.618 358.0
68.9021 323.0
69.1862 322.0
69.4702 289.0
69.7543 297.0
70.0384 303.0
70.3225 376.0
70.6066 384.0
70.8907 428.0
71.1748 335.0
71.4589 300.0
71.743 314.0
72.0271 328.0
72.3112 261.0
72.5952 307.0
72.8793 284.0
73.1634 291.0
73.4475 274.0
73.7316 319.0
74.0157 304.0
74.2998 290.0
74.5839 272.0
74.868 341.0
75.1521 333.0
75.4362 282.0
75.7203 306.0
76.0043 322.0
76.2884 336.0
76.5725 266.0
76.8566 282.0
77.1407 274.0
77.4248 279.0
77.7089 282.0
77.993 356.0
78.2771 277.0
78.5612 271.0
78.8453 271.0
79.1294 271.0
79.4134 251.0
79.6975 213.0
79.9816 280.0
80.2657 237.0
80.5498 247.0
80.8339 235.0
81.118 261.0
81.4021 233.0
81.6862 217.0
81.9703 246.0
82.2544 261.0
82.5385 213.0
82.8225 212.0
83.1066 226.0
83.3907 204.0
83.6748 192.0
83.9589 190.0
84.243 193.0
84.5271 179.0
84.8112 191.0
85.0953 241.0
85.3794 223.0
85.6635 222.0
85.9476 209.0
86.2316 209.0
86.5157 217.0
86.7998 198.0
87.0839 204.0
87.368 172.0
87.6521 192.0
87.9362 166.0
88.2203 182.0
88.5044 175.0
88.7885 182.0
89.0726 181.0
89.3567 162.0
89.6407 178.0
89.9248 178.0
89.9415 178.0