File: code/XRD_Analysis/Zeolites/data_files/SAPO-14/calc/20241105_SAPO-14-4_calc_Probe-3.xy
4.98146 960.0
5.26555 946.0
5.54964 834.0
5.83373 824.0
6.11782 760.0
6.40191 740.0
6.68601 708.0
6.9701 691.0
7.25419 667.0
7.53828 631.0
7.82237 664.0
8.10646 614.0
8.39055 656.0
8.67465 715.0
8.95874 3204.0
9.24283 724.0
9.52692 8456.0
9.81101 621.0
10.0951 541.0
10.3792 564.0
10.6633 549.0
10.9474 602.0
11.2315 1128.0
11.5156 483.0
11.7997 505.0
12.0837 959.0
12.3678 493.0
12.6519 543.0
12.936 2881.0
13.2201 3538.0
13.5042 583.0
13.7883 2141.0
14.0724 1063.0
14.3565 511.0
14.6406 473.0
14.9247 428.0
15.2088 477.0
15.4928 451.0
15.7769 657.0
16.061 982.0
16.3451 838.0
16.6292 534.0
16.9133 479.0
17.1974 466.0
17.4815 512.0
17.7656 1275.0
18.0497 2453.0
18.3338 918.0
18.6179 491.0
18.9019 525.0
19.186 1049.0
19.4701 540.0
19.7542 1660.0
20.0383 597.0
20.3224 750.0
20.6065 1853.0
20.8906 2431.0
21.1747 1362.0
21.4588 1532.0
21.7429 900.0
22.0269 1643.0
22.311 836.0
22.5951 1105.0
22.8792 746.0
23.1633 1000.0
23.4474 1132.0
23.7315 698.0
24.0156 685.0
24.2997 748.0
24.5838 620.0
24.8679 861.0
25.152 2516.0
25.436 894.0
25.7201 766.0
26.0042 1082.0
26.2883 1232.0
26.5724 1537.0
26.8565 1106.0
27.1406 820.0
27.4247 3527.0
27.7088 1337.0
27.9929 1000.0
28.277 1064.0
28.5611 850.0
28.8451 823.0
29.1292 1503.0
29.4133 833.0
29.6974 735.0
29.9815 2412.0
30.2656 1347.0
30.5497 875.0
30.8338 2561.0
31.1179 1906.0
31.402 1703.0
31.6861 798.0
31.9702 760.0
32.2542 1085.0
32.5383 675.0
32.8224 570.0
33.1065 894.0
33.3906 521.0
33.6747 1043.0
33.9588 517.0
34.2429 618.0
34.527 448.0
34.8111 770.0
35.0952 470.0
35.3793 610.0
35.6633 610.0
35.9474 474.0
36.2315 759.0
36.5156 502.0
36.7997 824.0
37.0838 469.0
37.3679 370.0
37.652 471.0
37.9361 364.0
38.2202 427.0
38.5043 379.0
38.7884 401.0
39.0724 416.0
39.3565 376.0
39.6406 469.0
39.9247 431.0
40.2088 580.0
40.4929 394.0
40.777 417.0
41.0611 401.0
41.3452 308.0
41.6293 358.0
41.9134 433.0
42.1975 377.0
42.4815 430.0
42.7656 403.0
43.0497 381.0
43.3338 357.0
43.6179 393.0
43.902 532.0
44.1861 373.0
44.4702 456.0
44.7543 352.0
45.0384 418.0
45.3225 346.0
45.6066 393.0
45.8906 436.0
46.1747 385.0
46.4588 367.0
46.7429 384.0
47.027 370.0
47.3111 323.0
47.5952 346.0
47.8793 447.0
48.1634 416.0
48.4475 381.0
48.7316 431.0
49.0156 393.0
49.2997 587.0
49.5838 458.0
49.8679 407.0
50.152 406.0
50.4361 319.0
50.7202 393.0
51.0043 457.0
51.2884 493.0
51.5725 378.0
51.8566 388.0
52.1407 429.0
52.4247 398.0
52.7088 419.0
52.9929 371.0
53.277 367.0
53.5611 384.0
53.8452 429.0
54.1293 404.0
54.4134 375.0
54.6975 382.0
54.9816 430.0
55.2657 404.0
55.5498 398.0
55.8338 456.0
56.1179 382.0
56.402 472.0
56.6861 420.0
56.9702 366.0
57.2543 349.0
57.5384 382.0
57.8225 353.0
58.1066 376.0
58.3907 353.0
58.6748 336.0
58.9589 322.0
59.2429 321.0
59.527 321.0
59.8111 352.0
60.0952 355.0
60.3793 352.0
60.6634 354.0
60.9475 351.0
61.2316 348.0
61.5157 293.0
61.7998 324.0
62.0839 338.0
62.368 324.0
62.652 263.0
62.9361 341.0
63.2202 263.0
63.5043 278.0
63.7884 299.0
64.0725 291.0
64.3566 301.0
64.6407 301.0
64.9248 321.0
65.2089 302.0
65.493 306.0
65.7771 339.0
66.0611 317.0
66.3452 298.0
66.6293 338.0
66.9134 365.0
67.1975 355.0
67.4816 389.0
67.7657 331.0
68.0498 358.0
68.3339 263.0
68.618 347.0
68.9021 260.0
69.1862 284.0
69.4702 284.0
69.7543 287.0
70.0384 302.0
70.3225 369.0
70.6066 307.0
70.8907 294.0
71.1748 362.0
71.4589 291.0
71.743 325.0
72.0271 298.0
72.3112 290.0
72.5952 274.0
72.8793 289.0
73.1634 270.0
73.4475 260.0
73.7316 270.0
74.0157 262.0
74.2998 287.0
74.5839 241.0
74.868 278.0
75.1521 280.0
75.4362 279.0
75.7203 262.0
76.0043 275.0
76.2884 261.0
76.5725 256.0
76.8566 250.0
77.1407 268.0
77.4248 241.0
77.7089 252.0
77.993 244.0
78.2771 240.0
78.5612 264.0
78.8453 259.0
79.1294 238.0
79.4134 237.0
79.6975 235.0
79.9816 219.0
80.2657 222.0
80.5498 200.0
80.8339 181.0
81.118 204.0
81.4021 219.0
81.6862 186.0
81.9703 211.0
82.2544 214.0
82.5385 184.0
82.8225 158.0
83.1066 213.0
83.3907 207.0
83.6748 165.0
83.9589 193.0
84.243 165.0
84.5271 165.0
84.8112 191.0
85.0953 193.0
85.3794 161.0
85.6635 185.0
85.9476 172.0
86.2316 170.0
86.5157 195.0
86.7998 169.0
87.0839 164.0
87.368 175.0
87.6521 147.0
87.9362 160.0
88.2203 141.0
88.5044 158.0
88.7885 167.0
89.0726 164.0
89.3567 165.0
89.6407 141.0
89.9248 132.0
89.9415 151.0