File: code/XRD_Analysis/External Sources/Fabian/SAPO-34/15022024_SAPO-34_SiAl_045_calc.xy
4.98146 1045.0
5.26555 928.0
5.54964 933.0
5.83373 870.0
6.11782 877.0
6.40191 817.0
6.68601 810.0
6.9701 759.0
7.25419 729.0
7.53828 676.0
7.82237 674.0
8.10646 659.0
8.39055 638.0
8.67465 637.0
8.95874 628.0
9.24283 774.0
9.52692 4408.0
9.81101 2172.0
10.0951 996.0
10.3792 708.0
10.6633 786.0
10.9474 700.0
11.2315 642.0
11.5156 512.0
11.7997 575.0
12.0837 504.0
12.3678 569.0
12.6519 607.0
12.936 1433.0
13.2201 1113.0
13.5042 667.0
13.7883 569.0
14.0724 591.0
14.3565 534.0
14.6406 497.0
14.9247 491.0
15.2088 492.0
15.4928 668.0
15.7769 634.0
16.061 951.0
16.3451 1054.0
16.6292 757.0
16.9133 993.0
17.1974 997.0
17.4815 861.0
17.7656 831.0
18.0497 965.0
18.3338 686.0
18.6179 648.0
18.9019 731.0
19.186 1006.0
19.4701 920.0
19.7542 971.0
20.0383 982.0
20.3224 973.0
20.6065 1201.0
20.8906 3220.0
21.1747 1336.0
21.4588 1228.0
21.7429 920.0
22.0269 767.0
22.311 892.0
22.5951 868.0
22.8792 864.0
23.1633 1036.0
23.4474 1181.0
23.7315 1103.0
24.0156 1320.0
24.2997 1325.0
24.5838 1117.0
24.8679 1059.0
25.152 1518.0
25.436 1187.0
25.7201 1089.0
26.0042 1417.0
26.2883 1812.0
26.5724 1462.0
26.8565 1181.0
27.1406 1109.0
27.4247 989.0
27.7088 1062.0
27.9929 1196.0
28.277 1105.0
28.5611 1122.0
28.8451 1080.0
29.1292 1072.0
29.4133 997.0
29.6974 1122.0
29.9815 1252.0
30.2656 1392.0
30.5497 1598.0
30.8338 2089.0
31.1179 2351.0
31.402 2288.0
31.6861 1665.0
31.9702 1427.0
32.2542 1244.0
32.5383 1147.0
32.8224 1181.0
33.1065 1038.0
33.3906 945.0
33.6747 838.0
33.9588 804.0
34.2429 755.0
34.527 793.0
34.8111 792.0
35.0952 644.0
35.3793 654.0
35.6633 654.0
35.9474 545.0
36.2315 603.0
36.5156 626.0
36.7997 528.0
37.0838 508.0
37.3679 494.0
37.652 485.0
37.9361 494.0
38.2202 481.0
38.5043 486.0
38.7884 440.0
39.0724 447.0
39.3565 537.0
39.6406 539.0
39.9247 504.0
40.2088 587.0
40.4929 504.0
40.777 511.0
41.0611 512.0
41.3452 498.0
41.6293 517.0
41.9134 435.0
42.1975 445.0
42.4815 443.0
42.7656 510.0
43.0497 555.0
43.3338 535.0
43.6179 541.0
43.902 554.0
44.1861 541.0
44.4702 509.0
44.7543 496.0
45.0384 534.0
45.3225 510.0
45.6066 428.0
45.8906 490.0
46.1747 471.0
46.4588 456.0
46.7429 474.0
47.027 502.0
47.3111 500.0
47.5952 466.0
47.8793 509.0
48.1634 506.0
48.4475 521.0
48.7316 505.0
49.0156 501.0
49.2997 649.0
49.5838 664.0
49.8679 630.0
50.152 580.0
50.4361 580.0
50.7202 524.0
51.0043 599.0
51.2884 559.0
51.5725 553.0
51.8566 575.0
52.1407 550.0
52.4247 506.0
52.7088 539.0
52.9929 570.0
53.277 510.0
53.5611 529.0
53.8452 573.0
54.1293 527.0
54.4134 540.0
54.6975 466.0
54.9816 492.0
55.2657 480.0
55.5498 492.0
55.8338 527.0
56.1179 516.0
56.402 472.0
56.6861 482.0
56.9702 506.0
57.2543 454.0
57.5384 491.0
57.8225 453.0
58.1066 488.0
58.3907 418.0
58.6748 411.0
58.9589 417.0
59.2429 427.0
59.527 443.0
59.8111 433.0
60.0952 471.0
60.3793 459.0
60.6634 482.0
60.9475 463.0
61.2316 462.0
61.5157 418.0
61.7998 417.0
62.0839 423.0
62.368 469.0
62.652 485.0
62.9361 424.0
63.2202 415.0
63.5043 404.0
63.7884 416.0
64.0725 412.0
64.3566 388.0
64.6407 442.0
64.9248 392.0
65.2089 387.0
65.493 401.0
65.7771 392.0
66.0611 417.0
66.3452 394.0
66.6293 422.0
66.9134 438.0
67.1975 473.0
67.4816 450.0
67.7657 433.0
68.0498 415.0
68.3339 434.0
68.618 426.0
68.9021 447.0
69.1862 422.0
69.4702 420.0
69.7543 415.0
70.0384 450.0
70.3225 422.0
70.6066 398.0
70.8907 403.0
71.1748 430.0
71.4589 393.0
71.743 413.0
72.0271 397.0
72.3112 443.0
72.5952 422.0
72.8793 378.0
73.1634 372.0
73.4475 401.0
73.7316 393.0
74.0157 363.0
74.2998 333.0
74.5839 371.0
74.868 381.0
75.1521 383.0
75.4362 376.0
75.7203 384.0
76.0043 400.0
76.2884 348.0
76.5725 389.0
76.8566 337.0
77.1407 361.0
77.4248 358.0
77.7089 334.0
77.993 319.0
78.2771 331.0
78.5612 313.0
78.8453 356.0
79.1294 302.0
79.4134 339.0
79.6975 308.0
79.9816 300.0
80.2657 302.0
80.5498 329.0
80.8339 309.0
81.118 319.0
81.4021 294.0
81.6862 301.0
81.9703 318.0
82.2544 284.0
82.5385 244.0
82.8225 264.0
83.1066 276.0
83.3907 280.0
83.6748 214.0
83.9589 243.0
84.243 263.0
84.5271 252.0
84.8112 261.0
85.0953 220.0
85.3794 276.0
85.6635 247.0
85.9476 213.0
86.2316 198.0
86.5157 253.0
86.7998 241.0
87.0839 240.0
87.368 238.0
87.6521 226.0
87.9362 227.0
88.2203 239.0
88.5044 232.0
88.7885 215.0
89.0726 203.0
89.3567 214.0
89.6407 197.0
89.9248 223.0
89.9415 197.0