File: code/XRD_Analysis/External Sources/Fabian/SAPO-34/15022024_SAPO-34_SiAl_030_calc.xy
4.98146 1085.0
5.26555 971.0
5.54964 948.0
5.83373 870.0
6.11782 841.0
6.40191 823.0
6.68601 722.0
6.9701 697.0
7.25419 736.0
7.53828 694.0
7.82237 694.0
8.10646 638.0
8.39055 690.0
8.67465 597.0
8.95874 647.0
9.24283 836.0
9.52692 6197.0
9.81101 1855.0
10.0951 1011.0
10.3792 781.0
10.6633 814.0
10.9474 689.0
11.2315 629.0
11.5156 591.0
11.7997 606.0
12.0837 566.0
12.3678 545.0
12.6519 642.0
12.936 1856.0
13.2201 1160.0
13.5042 724.0
13.7883 573.0
14.0724 747.0
14.3565 529.0
14.6406 574.0
14.9247 527.0
15.2088 555.0
15.4928 748.0
15.7769 639.0
16.061 1047.0
16.3451 989.0
16.6292 801.0
16.9133 1118.0
17.1974 1063.0
17.4815 876.0
17.7656 989.0
18.0497 1057.0
18.3338 731.0
18.6179 726.0
18.9019 745.0
19.186 1154.0
19.4701 1058.0
19.7542 1029.0
20.0383 1091.0
20.3224 1064.0
20.6065 1490.0
20.8906 3949.0
21.1747 1480.0
21.4588 1365.0
21.7429 956.0
22.0269 836.0
22.311 902.0
22.5951 990.0
22.8792 963.0
23.1633 1214.0
23.4474 1219.0
23.7315 1190.0
24.0156 1559.0
24.2997 1443.0
24.5838 1215.0
24.8679 1147.0
25.152 1878.0
25.436 1325.0
25.7201 1181.0
26.0042 1492.0
26.2883 2116.0
26.5724 1598.0
26.8565 1187.0
27.1406 1123.0
27.4247 1104.0
27.7088 1126.0
27.9929 1440.0
28.277 1375.0
28.5611 1167.0
28.8451 1190.0
29.1292 1162.0
29.4133 1116.0
29.6974 1168.0
29.9815 1274.0
30.2656 1486.0
30.5497 1609.0
30.8338 2542.0
31.1179 2703.0
31.402 2572.0
31.6861 1720.0
31.9702 1516.0
32.2542 1337.0
32.5383 1230.0
32.8224 1133.0
33.1065 1059.0
33.3906 892.0
33.6747 906.0
33.9588 823.0
34.2429 808.0
34.527 801.0
34.8111 919.0
35.0952 771.0
35.3793 742.0
35.6633 661.0
35.9474 582.0
36.2315 736.0
36.5156 664.0
36.7997 588.0
37.0838 561.0
37.3679 543.0
37.652 496.0
37.9361 503.0
38.2202 520.0
38.5043 497.0
38.7884 502.0
39.0724 544.0
39.3565 527.0
39.6406 623.0
39.9247 581.0
40.2088 588.0
40.4929 514.0
40.777 531.0
41.0611 510.0
41.3452 507.0
41.6293 552.0
41.9134 513.0
42.1975 534.0
42.4815 504.0
42.7656 567.0
43.0497 614.0
43.3338 566.0
43.6179 584.0
43.902 600.0
44.1861 522.0
44.4702 534.0
44.7543 513.0
45.0384 542.0
45.3225 481.0
45.6066 506.0
45.8906 488.0
46.1747 489.0
46.4588 494.0
46.7429 481.0
47.027 512.0
47.3111 504.0
47.5952 501.0
47.8793 525.0
48.1634 565.0
48.4475 528.0
48.7316 513.0
49.0156 536.0
49.2997 747.0
49.5838 719.0
49.8679 666.0
50.152 635.0
50.4361 561.0
50.7202 578.0
51.0043 578.0
51.2884 625.0
51.5725 554.0
51.8566 571.0
52.1407 611.0
52.4247 554.0
52.7088 565.0
52.9929 553.0
53.277 517.0
53.5611 525.0
53.8452 592.0
54.1293 538.0
54.4134 548.0
54.6975 543.0
54.9816 526.0
55.2657 540.0
55.5498 512.0
55.8338 560.0
56.1179 541.0
56.402 560.0
56.6861 537.0
56.9702 512.0
57.2543 433.0
57.5384 480.0
57.8225 473.0
58.1066 444.0
58.3907 440.0
58.6748 420.0
58.9589 443.0
59.2429 462.0
59.527 428.0
59.8111 461.0
60.0952 454.0
60.3793 424.0
60.6634 439.0
60.9475 495.0
61.2316 459.0
61.5157 465.0
61.7998 435.0
62.0839 462.0
62.368 463.0
62.652 420.0
62.9361 464.0
63.2202 457.0
63.5043 462.0
63.7884 436.0
64.0725 402.0
64.3566 407.0
64.6407 384.0
64.9248 442.0
65.2089 455.0
65.493 404.0
65.7771 420.0
66.0611 439.0
66.3452 428.0
66.6293 427.0
66.9134 456.0
67.1975 481.0
67.4816 469.0
67.7657 430.0
68.0498 422.0
68.3339 433.0
68.618 434.0
68.9021 418.0
69.1862 416.0
69.4702 398.0
69.7543 419.0
70.0384 464.0
70.3225 417.0
70.6066 425.0
70.8907 399.0
71.1748 464.0
71.4589 455.0
71.743 433.0
72.0271 433.0
72.3112 435.0
72.5952 404.0
72.8793 411.0
73.1634 380.0
73.4475 370.0
73.7316 429.0
74.0157 368.0
74.2998 375.0
74.5839 352.0
74.868 398.0
75.1521 388.0
75.4362 372.0
75.7203 373.0
76.0043 391.0
76.2884 365.0
76.5725 365.0
76.8566 356.0
77.1407 333.0
77.4248 330.0
77.7089 363.0
77.993 351.0
78.2771 331.0
78.5612 357.0
78.8453 305.0
79.1294 354.0
79.4134 322.0
79.6975 321.0
79.9816 329.0
80.2657 260.0
80.5498 313.0
80.8339 301.0
81.118 325.0
81.4021 311.0
81.6862 309.0
81.9703 323.0
82.2544 297.0
82.5385 294.0
82.8225 298.0
83.1066 288.0
83.3907 254.0
83.6748 293.0
83.9589 259.0
84.243 268.0
84.5271 269.0
84.8112 272.0
85.0953 225.0
85.3794 222.0
85.6635 242.0
85.9476 224.0
86.2316 233.0
86.5157 236.0
86.7998 246.0
87.0839 251.0
87.368 248.0
87.6521 225.0
87.9362 211.0
88.2203 207.0
88.5044 267.0
88.7885 232.0
89.0726 220.0
89.3567 180.0
89.6407 205.0
89.9248 215.0
89.9415 207.0