File: code/XRD_Analysis/External Sources/Fabian/SAPO-34/240412_SAPO-34_SiAl_045.xy
4.98146 1007.0
5.26555 974.0
5.54964 839.0
5.83373 857.0
6.11782 781.0
6.40191 743.0
6.68601 667.0
6.9701 704.0
7.25419 705.0
7.53828 633.0
7.82237 657.0
8.10646 617.0
8.39055 602.0
8.67465 616.0
8.95874 611.0
9.24283 644.0
9.52692 1742.0
9.81101 8526.0
10.0951 1303.0
10.3792 801.0
10.6633 770.0
10.9474 754.0
11.2315 595.0
11.5156 529.0
11.7997 480.0
12.0837 500.0
12.3678 512.0
12.6519 522.0
12.936 766.0
13.2201 2146.0
13.5042 760.0
13.7883 645.0
14.0724 569.0
14.3565 542.0
14.6406 478.0
14.9247 466.0
15.2088 478.0
15.4928 518.0
15.7769 701.0
16.061 734.0
16.3451 1588.0
16.6292 738.0
16.9133 965.0
17.1974 1055.0
17.4815 962.0
17.7656 816.0
18.0497 1078.0
18.3338 790.0
18.6179 706.0
18.9019 767.0
19.186 861.0
19.4701 1088.0
19.7542 934.0
20.0383 1019.0
20.3224 1087.0
20.6065 1111.0
20.8906 2961.0
21.1747 1999.0
21.4588 1284.0
21.7429 1110.0
22.0269 734.0
22.311 855.0
22.5951 879.0
22.8792 927.0
23.1633 922.0
23.4474 1370.0
23.7315 1090.0
24.0156 1309.0
24.2997 1425.0
24.5838 1241.0
24.8679 1100.0
25.152 1205.0
25.436 1394.0
25.7201 1192.0
26.0042 1287.0
26.2883 1992.0
26.5724 1663.0
26.8565 1290.0
27.1406 1138.0
27.4247 1006.0
27.7088 1043.0
27.9929 1137.0
28.277 1188.0
28.5611 1229.0
28.8451 1175.0
29.1292 1107.0
29.4133 1076.0
29.6974 1059.0
29.9815 1278.0
30.2656 1346.0
30.5497 1529.0
30.8338 1823.0
31.1179 2749.0
31.402 2558.0
31.6861 2002.0
31.9702 1593.0
32.2542 1402.0
32.5383 1269.0
32.8224 1286.0
33.1065 1210.0
33.3906 967.0
33.6747 899.0
33.9588 864.0
34.2429 822.0
34.527 824.0
34.8111 720.0
35.0952 834.0
35.3793 737.0
35.6633 633.0
35.9474 658.0
36.2315 602.0
36.5156 696.0
36.7997 580.0
37.0838 572.0
37.3679 491.0
37.652 489.0
37.9361 482.0
38.2202 537.0
38.5043 519.0
38.7884 466.0
39.0724 507.0
39.3565 478.0
39.6406 522.0
39.9247 571.0
40.2088 572.0
40.4929 557.0
40.777 508.0
41.0611 469.0
41.3452 528.0
41.6293 532.0
41.9134 528.0
42.1975 514.0
42.4815 526.0
42.7656 487.0
43.0497 502.0
43.3338 606.0
43.6179 564.0
43.902 552.0
44.1861 509.0
44.4702 498.0
44.7543 492.0
45.0384 537.0
45.3225 512.0
45.6066 449.0
45.8906 501.0
46.1747 459.0
46.4588 479.0
46.7429 509.0
47.027 502.0
47.3111 520.0
47.5952 506.0
47.8793 496.0
48.1634 553.0
48.4475 538.0
48.7316 451.0
49.0156 550.0
49.2997 667.0
49.5838 708.0
49.8679 688.0
50.152 642.0
50.4361 588.0
50.7202 602.0
51.0043 579.0
51.2884 625.0
51.5725 613.0
51.8566 628.0
52.1407 568.0
52.4247 569.0
52.7088 524.0
52.9929 539.0
53.277 545.0
53.5611 532.0
53.8452 560.0
54.1293 596.0
54.4134 539.0
54.6975 541.0
54.9816 581.0
55.2657 504.0
55.5498 551.0
55.8338 564.0
56.1179 528.0
56.402 509.0
56.6861 529.0
56.9702 461.0
57.2543 477.0
57.5384 483.0
57.8225 511.0
58.1066 431.0
58.3907 438.0
58.6748 416.0
58.9589 460.0
59.2429 488.0
59.527 451.0
59.8111 447.0
60.0952 465.0
60.3793 466.0
60.6634 538.0
60.9475 485.0
61.2316 522.0
61.5157 481.0
61.7998 450.0
62.0839 420.0
62.368 478.0
62.652 517.0
62.9361 445.0
63.2202 431.0
63.5043 396.0
63.7884 424.0
64.0725 462.0
64.3566 413.0
64.6407 460.0
64.9248 401.0
65.2089 434.0
65.493 458.0
65.7771 432.0
66.0611 426.0
66.3452 451.0
66.6293 445.0
66.9134 470.0
67.1975 442.0
67.4816 451.0
67.7657 422.0
68.0498 453.0
68.3339 445.0
68.618 482.0
68.9021 433.0
69.1862 422.0
69.4702 448.0
69.7543 486.0
70.0384 422.0
70.3225 398.0
70.6066 472.0
70.8907 440.0
71.1748 459.0
71.4589 441.0
71.743 435.0
72.0271 420.0
72.3112 464.0
72.5952 478.0
72.8793 416.0
73.1634 427.0
73.4475 416.0
73.7316 418.0
74.0157 462.0
74.2998 415.0
74.5839 389.0
74.868 386.0
75.1521 387.0
75.4362 392.0
75.7203 363.0
76.0043 378.0
76.2884 387.0
76.5725 339.0
76.8566 394.0
77.1407 352.0
77.4248 391.0
77.7089 443.0
77.993 356.0
78.2771 319.0
78.5612 353.0
78.8453 334.0
79.1294 365.0
79.4134 360.0
79.6975 323.0
79.9816 321.0
80.2657 351.0
80.5498 307.0
80.8339 340.0
81.118 330.0
81.4021 314.0
81.6862 303.0
81.9703 319.0
82.2544 299.0
82.5385 298.0
82.8225 295.0
83.1066 302.0
83.3907 289.0
83.6748 262.0
83.9589 263.0
84.243 287.0
84.5271 304.0
84.8112 278.0
85.0953 301.0
85.3794 282.0
85.6635 266.0
85.9476 255.0
86.2316 247.0
86.5157 248.0
86.7998 231.0
87.0839 236.0
87.368 250.0
87.6521 242.0
87.9362 238.0
88.2203 262.0
88.5044 239.0
88.7885 214.0
89.0726 225.0
89.3567 219.0
89.6407 219.0
89.9248 229.0
89.9415 270.0