File: code/XRD_Analysis/External Sources/Fabian/SAPO-34/25012024_SAPO-34_SiAl_035_calc.xy
4.98146 1176.0
5.26555 1023.0
5.54964 1010.0
5.83373 946.0
6.11782 910.0
6.40191 839.0
6.68601 847.0
6.9701 820.0
7.25419 797.0
7.53828 779.0
7.82237 723.0
8.10646 715.0
8.39055 697.0
8.67465 694.0
8.95874 693.0
9.24283 967.0
9.52692 7270.0
9.81101 1934.0
10.0951 1159.0
10.3792 846.0
10.6633 924.0
10.9474 726.0
11.2315 665.0
11.5156 646.0
11.7997 685.0
12.0837 601.0
12.3678 653.0
12.6519 731.0
12.936 1941.0
13.2201 1096.0
13.5042 773.0
13.7883 684.0
14.0724 662.0
14.3565 554.0
14.6406 564.0
14.9247 542.0
15.2088 584.0
15.4928 768.0
15.7769 736.0
16.061 1094.0
16.3451 931.0
16.6292 891.0
16.9133 1166.0
17.1974 1110.0
17.4815 948.0
17.7656 1104.0
18.0497 973.0
18.3338 791.0
18.6179 813.0
18.9019 803.0
19.186 1294.0
19.4701 1130.0
19.7542 1089.0
20.0383 1063.0
20.3224 1097.0
20.6065 1656.0
20.8906 2936.0
21.1747 1430.0
21.4588 1385.0
21.7429 981.0
22.0269 930.0
22.311 912.0
22.5951 1078.0
22.8792 1009.0
23.1633 1300.0
23.4474 1179.0
23.7315 1277.0
24.0156 1632.0
24.2997 1472.0
24.5838 1357.0
24.8679 1350.0
25.152 1533.0
25.436 1257.0
25.7201 1328.0
26.0042 1702.0
26.2883 1922.0
26.5724 1539.0
26.8565 1265.0
27.1406 1266.0
27.4247 1229.0
27.7088 1235.0
27.9929 1390.0
28.277 1462.0
28.5611 1261.0
28.8451 1307.0
29.1292 1265.0
29.4133 1213.0
29.6974 1306.0
29.9815 1437.0
30.2656 1624.0
30.5497 1778.0
30.8338 2664.0
31.1179 2692.0
31.402 2446.0
31.6861 1769.0
31.9702 1647.0
32.2542 1444.0
32.5383 1347.0
32.8224 1301.0
33.1065 1182.0
33.3906 1072.0
33.6747 1037.0
33.9588 962.0
34.2429 866.0
34.527 909.0
34.8111 908.0
35.0952 786.0
35.3793 755.0
35.6633 669.0
35.9474 677.0
36.2315 701.0
36.5156 645.0
36.7997 654.0
37.0838 548.0
37.3679 574.0
37.652 564.0
37.9361 518.0
38.2202 555.0
38.5043 567.0
38.7884 559.0
39.0724 574.0
39.3565 553.0
39.6406 602.0
39.9247 597.0
40.2088 591.0
40.4929 585.0
40.777 547.0
41.0611 551.0
41.3452 591.0
41.6293 513.0
41.9134 536.0
42.1975 533.0
42.4815 583.0
42.7656 574.0
43.0497 621.0
43.3338 637.0
43.6179 598.0
43.902 537.0
44.1861 569.0
44.4702 518.0
44.7543 526.0
45.0384 538.0
45.3225 511.0
45.6066 548.0
45.8906 528.0
46.1747 525.0
46.4588 513.0
46.7429 543.0
47.027 539.0
47.3111 535.0
47.5952 514.0
47.8793 549.0
48.1634 554.0
48.4475 567.0
48.7316 541.0
49.0156 572.0
49.2997 723.0
49.5838 701.0
49.8679 643.0
50.152 602.0
50.4361 623.0
50.7202 559.0
51.0043 654.0
51.2884 612.0
51.5725 616.0
51.8566 573.0
52.1407 637.0
52.4247 615.0
52.7088 600.0
52.9929 598.0
53.277 557.0
53.5611 588.0
53.8452 607.0
54.1293 587.0
54.4134 573.0
54.6975 558.0
54.9816 522.0
55.2657 566.0
55.5498 569.0
55.8338 570.0
56.1179 479.0
56.402 548.0
56.6861 470.0
56.9702 525.0
57.2543 564.0
57.5384 465.0
57.8225 470.0
58.1066 469.0
58.3907 506.0
58.6748 501.0
58.9589 456.0
59.2429 480.0
59.527 474.0
59.8111 491.0
60.0952 483.0
60.3793 491.0
60.6634 481.0
60.9475 507.0
61.2316 500.0
61.5157 459.0
61.7998 487.0
62.0839 466.0
62.368 457.0
62.652 460.0
62.9361 451.0
63.2202 471.0
63.5043 442.0
63.7884 411.0
64.0725 480.0
64.3566 469.0
64.6407 430.0
64.9248 472.0
65.2089 418.0
65.493 449.0
65.7771 434.0
66.0611 433.0
66.3452 451.0
66.6293 431.0
66.9134 482.0
67.1975 439.0
67.4816 488.0
67.7657 446.0
68.0498 435.0
68.3339 455.0
68.618 429.0
68.9021 424.0
69.1862 483.0
69.4702 431.0
69.7543 453.0
70.0384 436.0
70.3225 451.0
70.6066 418.0
70.8907 403.0
71.1748 425.0
71.4589 394.0
71.743 450.0
72.0271 427.0
72.3112 474.0
72.5952 412.0
72.8793 411.0
73.1634 450.0
73.4475 434.0
73.7316 413.0
74.0157 389.0
74.2998 369.0
74.5839 397.0
74.868 361.0
75.1521 373.0
75.4362 369.0
75.7203 402.0
76.0043 382.0
76.2884 376.0
76.5725 400.0
76.8566 412.0
77.1407 353.0
77.4248 332.0
77.7089 326.0
77.993 371.0
78.2771 418.0
78.5612 357.0
78.8453 324.0
79.1294 313.0
79.4134 351.0
79.6975 318.0
79.9816 314.0
80.2657 309.0
80.5498 309.0
80.8339 335.0
81.118 298.0
81.4021 322.0
81.6862 311.0
81.9703 288.0
82.2544 306.0
82.5385 288.0
82.8225 290.0
83.1066 279.0
83.3907 292.0
83.6748 282.0
83.9589 274.0
84.243 286.0
84.5271 261.0
84.8112 288.0
85.0953 277.0
85.3794 262.0
85.6635 257.0
85.9476 272.0
86.2316 248.0
86.5157 255.0
86.7998 251.0
87.0839 269.0
87.368 221.0
87.6521 229.0
87.9362 213.0
88.2203 250.0
88.5044 224.0
88.7885 244.0
89.0726 240.0
89.3567 228.0
89.6407 211.0
89.9248 195.0
89.9415 206.0