File: code/XRD_Analysis/External Sources/Fabian/SAPO-34/25012024_SAPO-34_SiAl_04_calc.xy
4.98146 1090.0
5.26555 1024.0
5.54964 1031.0
5.83373 932.0
6.11782 903.0
6.40191 851.0
6.68601 839.0
6.9701 758.0
7.25419 743.0
7.53828 698.0
7.82237 725.0
8.10646 712.0
8.39055 722.0
8.67465 649.0
8.95874 675.0
9.24283 975.0
9.52692 10985.0
9.81101 1812.0
10.0951 1137.0
10.3792 910.0
10.6633 924.0
10.9474 903.0
11.2315 759.0
11.5156 645.0
11.7997 689.0
12.0837 682.0
12.3678 663.0
12.6519 741.0
12.936 2695.0
13.2201 1004.0
13.5042 888.0
13.7883 661.0
14.0724 810.0
14.3565 588.0
14.6406 591.0
14.9247 622.0
15.2088 610.0
15.4928 746.0
15.7769 758.0
16.061 1460.0
16.3451 1022.0
16.6292 928.0
16.9133 1248.0
17.1974 1179.0
17.4815 1114.0
17.7656 1075.0
18.0497 1166.0
18.3338 876.0
18.6179 856.0
18.9019 947.0
19.186 1486.0
19.4701 1105.0
19.7542 1191.0
20.0383 1159.0
20.3224 1201.0
20.6065 1899.0
20.8906 3056.0
21.1747 1507.0
21.4588 1518.0
21.7429 1082.0
22.0269 885.0
22.311 1058.0
22.5951 1062.0
22.8792 1163.0
23.1633 1321.0
23.4474 1269.0
23.7315 1357.0
24.0156 1677.0
24.2997 1644.0
24.5838 1426.0
24.8679 1414.0
25.152 1742.0
25.436 1438.0
25.7201 1476.0
26.0042 1954.0
26.2883 2058.0
26.5724 1596.0
26.8565 1448.0
27.1406 1332.0
27.4247 1272.0
27.7088 1333.0
27.9929 1490.0
28.277 1450.0
28.5611 1474.0
28.8451 1336.0
29.1292 1341.0
29.4133 1243.0
29.6974 1335.0
29.9815 1539.0
30.2656 1664.0
30.5497 1973.0
30.8338 2693.0
31.1179 2661.0
31.402 2557.0
31.6861 1909.0
31.9702 1622.0
32.2542 1384.0
32.5383 1406.0
32.8224 1379.0
33.1065 1276.0
33.3906 1043.0
33.6747 976.0
33.9588 957.0
34.2429 938.0
34.527 862.0
34.8111 967.0
35.0952 782.0
35.3793 743.0
35.6633 720.0
35.9474 712.0
36.2315 723.0
36.5156 708.0
36.7997 663.0
37.0838 625.0
37.3679 611.0
37.652 628.0
37.9361 589.0
38.2202 557.0
38.5043 548.0
38.7884 580.0
39.0724 628.0
39.3565 589.0
39.6406 564.0
39.9247 616.0
40.2088 657.0
40.4929 610.0
40.777 561.0
41.0611 605.0
41.3452 594.0
41.6293 555.0
41.9134 555.0
42.1975 590.0
42.4815 550.0
42.7656 547.0
43.0497 587.0
43.3338 647.0
43.6179 585.0
43.902 570.0
44.1861 554.0
44.4702 568.0
44.7543 538.0
45.0384 568.0
45.3225 583.0
45.6066 551.0
45.8906 506.0
46.1747 551.0
46.4588 509.0
46.7429 520.0
47.027 524.0
47.3111 561.0
47.5952 565.0
47.8793 548.0
48.1634 561.0
48.4475 565.0
48.7316 596.0
49.0156 595.0
49.2997 774.0
49.5838 706.0
49.8679 679.0
50.152 637.0
50.4361 566.0
50.7202 605.0
51.0043 643.0
51.2884 668.0
51.5725 612.0
51.8566 586.0
52.1407 622.0
52.4247 603.0
52.7088 581.0
52.9929 654.0
53.277 573.0
53.5611 575.0
53.8452 599.0
54.1293 505.0
54.4134 568.0
54.6975 548.0
54.9816 565.0
55.2657 526.0
55.5498 552.0
55.8338 614.0
56.1179 556.0
56.402 572.0
56.6861 556.0
56.9702 545.0
57.2543 463.0
57.5384 521.0
57.8225 505.0
58.1066 449.0
58.3907 501.0
58.6748 478.0
58.9589 474.0
59.2429 491.0
59.527 487.0
59.8111 507.0
60.0952 498.0
60.3793 497.0
60.6634 518.0
60.9475 498.0
61.2316 454.0
61.5157 472.0
61.7998 487.0
62.0839 454.0
62.368 464.0
62.652 478.0
62.9361 474.0
63.2202 479.0
63.5043 443.0
63.7884 467.0
64.0725 494.0
64.3566 398.0
64.6407 501.0
64.9248 411.0
65.2089 434.0
65.493 457.0
65.7771 459.0
66.0611 477.0
66.3452 458.0
66.6293 502.0
66.9134 448.0
67.1975 424.0
67.4816 495.0
67.7657 461.0
68.0498 450.0
68.3339 462.0
68.618 436.0
68.9021 445.0
69.1862 457.0
69.4702 444.0
69.7543 467.0
70.0384 410.0
70.3225 431.0
70.6066 412.0
70.8907 406.0
71.1748 432.0
71.4589 453.0
71.743 433.0
72.0271 451.0
72.3112 404.0
72.5952 383.0
72.8793 395.0
73.1634 451.0
73.4475 441.0
73.7316 375.0
74.0157 412.0
74.2998 414.0
74.5839 384.0
74.868 368.0
75.1521 426.0
75.4362 372.0
75.7203 394.0
76.0043 377.0
76.2884 379.0
76.5725 393.0
76.8566 370.0
77.1407 350.0
77.4248 401.0
77.7089 363.0
77.993 382.0
78.2771 354.0
78.5612 369.0
78.8453 370.0
79.1294 344.0
79.4134 325.0
79.6975 342.0
79.9816 355.0
80.2657 338.0
80.5498 317.0
80.8339 299.0
81.118 299.0
81.4021 345.0
81.6862 337.0
81.9703 319.0
82.2544 302.0
82.5385 274.0
82.8225 315.0
83.1066 266.0
83.3907 279.0
83.6748 285.0
83.9589 306.0
84.243 282.0
84.5271 290.0
84.8112 256.0
85.0953 276.0
85.3794 305.0
85.6635 259.0
85.9476 260.0
86.2316 266.0
86.5157 248.0
86.7998 261.0
87.0839 259.0
87.368 245.0
87.6521 262.0
87.9362 231.0
88.2203 238.0
88.5044 238.0
88.7885 228.0
89.0726 256.0
89.3567 253.0
89.6407 226.0
89.9248 232.0
89.9415 219.0