File: code/XRD_Analysis/Zeolites/data_files/SAPO-14/assynth/20241028_SAPO-14-3-assynth-Probe-2.xy
4.98146 967.0
5.26555 909.0
5.54964 866.0
5.83373 810.0
6.11782 685.0
6.40191 738.0
6.68601 679.0
6.9701 637.0
7.25419 632.0
7.53828 610.0
7.82237 622.0
8.10646 621.0
8.39055 597.0
8.67465 912.0
8.95874 18465.0
9.24283 875.0
9.52692 7546.0
9.81101 482.0
10.0951 465.0
10.3792 431.0
10.6633 458.0
10.9474 636.0
11.2315 1765.0
11.5156 397.0
11.7997 386.0
12.0837 394.0
12.3678 391.0
12.6519 436.0
12.936 1149.0
13.2201 592.0
13.5042 423.0
13.7883 466.0
14.0724 585.0
14.3565 328.0
14.6406 408.0
14.9247 375.0
15.2088 358.0
15.4928 389.0
15.7769 2815.0
16.061 1174.0
16.3451 297.0
16.6292 321.0
16.9133 347.0
17.1974 302.0
17.4815 350.0
17.7656 637.0
18.0497 3402.0
18.3338 318.0
18.6179 465.0
18.9019 340.0
19.186 844.0
19.4701 311.0
19.7542 567.0
20.0383 357.0
20.3224 597.0
20.6065 4454.0
20.8906 2920.0
21.1747 397.0
21.4588 445.0
21.7429 2586.0
22.0269 1193.0
22.311 3130.0
22.5951 4337.0
22.8792 3627.0
23.1633 583.0
23.4474 386.0
23.7315 386.0
24.0156 329.0
24.2997 1595.0
24.5838 354.0
24.8679 367.0
25.152 2464.0
25.436 1159.0
25.7201 924.0
26.0042 511.0
26.2883 2635.0
26.5724 569.0
26.8565 358.0
27.1406 1274.0
27.4247 335.0
27.7088 1328.0
27.9929 351.0
28.277 950.0
28.5611 392.0
28.8451 1188.0
29.1292 994.0
29.4133 1088.0
29.6974 1924.0
29.9815 605.0
30.2656 1391.0
30.5497 2938.0
30.8338 4673.0
31.1179 2571.0
31.402 525.0
31.6861 466.0
31.9702 415.0
32.2542 917.0
32.5383 830.0
32.8224 307.0
33.1065 479.0
33.3906 426.0
33.6747 1265.0
33.9588 361.0
34.2429 503.0
34.527 428.0
34.8111 453.0
35.0952 839.0
35.3793 256.0
35.6633 1211.0
35.9474 275.0
36.2315 592.0
36.5156 885.0
36.7997 365.0
37.0838 373.0
37.3679 424.0
37.652 269.0
37.9361 445.0
38.2202 335.0
38.5043 676.0
38.7884 352.0
39.0724 832.0
39.3565 525.0
39.6406 531.0
39.9247 278.0
40.2088 496.0
40.4929 656.0
40.777 492.0
41.0611 604.0
41.3452 199.0
41.6293 222.0
41.9134 311.0
42.1975 711.0
42.4815 451.0
42.7656 527.0
43.0497 400.0
43.3338 673.0
43.6179 250.0
43.902 259.0
44.1861 472.0
44.4702 662.0
44.7543 360.0
45.0384 601.0
45.3225 286.0
45.6066 325.0
45.8906 219.0
46.1747 411.0
46.4588 658.0
46.7429 335.0
47.027 394.0
47.3111 445.0
47.5952 490.0
47.8793 548.0
48.1634 382.0
48.4475 400.0
48.7316 612.0
49.0156 547.0
49.2997 369.0
49.5838 455.0
49.8679 293.0
50.152 391.0
50.4361 348.0
50.7202 494.0
51.0043 347.0
51.2884 330.0
51.5725 311.0
51.8566 420.0
52.1407 551.0
52.4247 331.0
52.7088 317.0
52.9929 612.0
53.277 477.0
53.5611 516.0
53.8452 469.0
54.1293 741.0
54.4134 678.0
54.6975 340.0
54.9816 292.0
55.2657 456.0
55.5498 325.0
55.8338 410.0
56.1179 526.0
56.402 216.0
56.6861 301.0
56.9702 315.0
57.2543 354.0
57.5384 294.0
57.8225 338.0
58.1066 255.0
58.3907 370.0
58.6748 304.0
58.9589 269.0
59.2429 304.0
59.527 397.0
59.8111 475.0
60.0952 324.0
60.3793 259.0
60.6634 320.0
60.9475 688.0
61.2316 668.0
61.5157 340.0
61.7998 353.0
62.0839 410.0
62.368 451.0
62.652 529.0
62.9361 465.0
63.2202 287.0
63.5043 304.0
63.7884 326.0
64.0725 322.0
64.3566 313.0
64.6407 261.0
64.9248 227.0
65.2089 268.0
65.493 304.0
65.7771 378.0
66.0611 583.0
66.3452 406.0
66.6293 242.0
66.9134 302.0
67.1975 375.0
67.4816 277.0
67.7657 245.0
68.0498 228.0
68.3339 269.0
68.618 420.0
68.9021 380.0
69.1862 309.0
69.4702 293.0
69.7543 269.0
70.0384 302.0
70.3225 354.0
70.6066 497.0
70.8907 669.0
71.1748 491.0
71.4589 400.0
71.743 318.0
72.0271 430.0
72.3112 451.0
72.5952 600.0
72.8793 334.0
73.1634 248.0
73.4475 222.0
73.7316 238.0
74.0157 315.0
74.2998 313.0
74.5839 397.0
74.868 356.0
75.1521 368.0
75.4362 309.0
75.7203 315.0
76.0043 385.0
76.2884 248.0
76.5725 186.0
76.8566 246.0
77.1407 200.0
77.4248 209.0
77.7089 173.0
77.993 220.0
78.2771 252.0
78.5612 295.0
78.8453 279.0
79.1294 294.0
79.4134 293.0
79.6975 308.0
79.9816 260.0
80.2657 284.0
80.5498 276.0
80.8339 336.0
81.118 261.0
81.4021 215.0
81.6862 255.0
81.9703 186.0
82.2544 208.0
82.5385 246.0
82.8225 232.0
83.1066 196.0
83.3907 177.0
83.6748 153.0
83.9589 212.0
84.243 197.0
84.5271 138.0
84.8112 172.0
85.0953 203.0
85.3794 228.0
85.6635 166.0
85.9476 163.0
86.2316 190.0
86.5157 204.0
86.7998 214.0
87.0839 207.0
87.368 219.0
87.6521 192.0
87.9362 195.0
88.2203 195.0
88.5044 195.0
88.7885 146.0
89.0726 164.0
89.3567 158.0
89.6407 206.0
89.9248 161.0
89.9415 152.0