File: code/XRD_Analysis/Zeolites/data_files/SAPO-14/assynth/20241001_SAPO-14-2-AP.xy
4.98146 1051.0
5.26555 980.0
5.54964 944.0
5.83373 834.0
6.11782 849.0
6.40191 823.0
6.68601 747.0
6.9701 731.0
7.25419 927.0
7.53828 823.0
7.82237 641.0
8.10646 1446.0
8.39055 628.0
8.67465 615.0
8.95874 583.0
9.24283 769.0
9.52692 16196.0
9.81101 590.0
10.0951 556.0
10.3792 509.0
10.6633 509.0
10.9474 487.0
11.2315 486.0
11.5156 507.0
11.7997 490.0
12.0837 450.0
12.3678 454.0
12.6519 516.0
12.936 1431.0
13.2201 1072.0
13.5042 603.0
13.7883 586.0
14.0724 6338.0
14.3565 463.0
14.6406 442.0
14.9247 850.0
15.2088 407.0
15.4928 462.0
15.7769 2148.0
16.061 3191.0
16.3451 529.0
16.6292 407.0
16.9133 378.0
17.1974 417.0
17.4815 450.0
17.7656 759.0
18.0497 439.0
18.3338 502.0
18.6179 442.0
18.9019 494.0
19.186 691.0
19.4701 531.0
19.7542 2460.0
20.0383 692.0
20.3224 3290.0
20.6065 14156.0
20.8906 927.0
21.1747 5358.0
21.4588 2038.0
21.7429 1145.0
22.0269 1991.0
22.311 2777.0
22.5951 1400.0
22.8792 2589.0
23.1633 2487.0
23.4474 855.0
23.7315 569.0
24.0156 635.0
24.2997 3460.0
24.5838 879.0
24.8679 1145.0
25.152 2759.0
25.436 611.0
25.7201 619.0
26.0042 1216.0
26.2883 619.0
26.5724 1325.0
26.8565 502.0
27.1406 594.0
27.4247 556.0
27.7088 813.0
27.9929 589.0
28.277 2939.0
28.5611 555.0
28.8451 1126.0
29.1292 801.0
29.4133 542.0
29.6974 832.0
29.9815 1256.0
30.2656 576.0
30.5497 3946.0
30.8338 841.0
31.1179 3774.0
31.402 576.0
31.6861 2088.0
31.9702 532.0
32.2542 493.0
32.5383 470.0
32.8224 786.0
33.1065 445.0
33.3906 541.0
33.6747 996.0
33.9588 446.0
34.2429 570.0
34.527 1908.0
34.8111 1799.0
35.0952 430.0
35.3793 388.0
35.6633 690.0
35.9474 503.0
36.2315 696.0
36.5156 492.0
36.7997 364.0
37.0838 367.0
37.3679 392.0
37.652 666.0
37.9361 584.0
38.2202 588.0
38.5043 480.0
38.7884 528.0
39.0724 439.0
39.3565 441.0
39.6406 589.0
39.9247 316.0
40.2088 383.0
40.4929 411.0
40.777 367.0
41.0611 337.0
41.3452 373.0
41.6293 331.0
41.9134 446.0
42.1975 428.0
42.4815 341.0
42.7656 541.0
43.0497 781.0
43.3338 471.0
43.6179 450.0
43.902 378.0
44.1861 331.0
44.4702 332.0
44.7543 417.0
45.0384 424.0
45.3225 363.0
45.6066 353.0
45.8906 346.0
46.1747 357.0
46.4588 325.0
46.7429 423.0
47.027 335.0
47.3111 364.0
47.5952 803.0
47.8793 363.0
48.1634 338.0
48.4475 340.0
48.7316 457.0
49.0156 803.0
49.2997 383.0
49.5838 480.0
49.8679 338.0
50.152 330.0
50.4361 402.0
50.7202 790.0
51.0043 516.0
51.2884 420.0
51.5725 384.0
51.8566 432.0
52.1407 1360.0
52.4247 366.0
52.7088 379.0
52.9929 336.0
53.277 929.0
53.5611 423.0
53.8452 391.0
54.1293 332.0
54.4134 1193.0
54.6975 392.0
54.9816 350.0
55.2657 313.0
55.5498 460.0
55.8338 516.0
56.1179 514.0
56.402 519.0
56.6861 386.0
56.9702 324.0
57.2543 377.0
57.5384 307.0
57.8225 301.0
58.1066 340.0
58.3907 771.0
58.6748 466.0
58.9589 301.0
59.2429 324.0
59.527 602.0
59.8111 407.0
60.0952 416.0
60.3793 397.0
60.6634 387.0
60.9475 542.0
61.2316 564.0
61.5157 428.0
61.7998 364.0
62.0839 385.0
62.368 500.0
62.652 340.0
62.9361 411.0
63.2202 294.0
63.5043 385.0
63.7884 361.0
64.0725 388.0
64.3566 351.0
64.6407 332.0
64.9248 305.0
65.2089 294.0
65.493 362.0
65.7771 305.0
66.0611 509.0
66.3452 346.0
66.6293 331.0
66.9134 543.0
67.1975 393.0
67.4816 340.0
67.7657 300.0
68.0498 416.0
68.3339 310.0
68.618 301.0
68.9021 297.0
69.1862 370.0
69.4702 321.0
69.7543 447.0
70.0384 410.0
70.3225 331.0
70.6066 830.0
70.8907 419.0
71.1748 454.0
71.4589 456.0
71.743 333.0
72.0271 328.0
72.3112 385.0
72.5952 411.0
72.8793 344.0
73.1634 321.0
73.4475 393.0
73.7316 287.0
74.0157 413.0
74.2998 314.0
74.5839 341.0
74.868 305.0
75.1521 445.0
75.4362 388.0
75.7203 297.0
76.0043 298.0
76.2884 314.0
76.5725 354.0
76.8566 303.0
77.1407 323.0
77.4248 347.0
77.7089 260.0
77.993 298.0
78.2771 311.0
78.5612 378.0
78.8453 302.0
79.1294 277.0
79.4134 298.0
79.6975 267.0
79.9816 319.0
80.2657 404.0
80.5498 349.0
80.8339 242.0
81.118 306.0
81.4021 330.0
81.6862 254.0
81.9703 306.0
82.2544 267.0
82.5385 289.0
82.8225 269.0
83.1066 252.0
83.3907 224.0
83.6748 194.0
83.9589 252.0
84.243 233.0
84.5271 179.0
84.8112 197.0
85.0953 200.0
85.3794 222.0
85.6635 212.0
85.9476 204.0
86.2316 191.0
86.5157 170.0
86.7998 212.0
87.0839 233.0
87.368 190.0
87.6521 229.0
87.9362 194.0
88.2203 258.0
88.5044 220.0
88.7885 223.0
89.0726 178.0
89.3567 189.0
89.6407 178.0
89.9248 180.0
89.9415 160.0