File: code/XRD_Analysis/Zeolites/data_files/SAPO-14/assynth/20241028_SAPO-14-3-assynth-Probe-1.xy
4.98146 945.0
5.26555 942.0
5.54964 840.0
5.83373 801.0
6.11782 697.0
6.40191 734.0
6.68601 676.0
6.9701 663.0
7.25419 615.0
7.53828 628.0
7.82237 651.0
8.10646 592.0
8.39055 735.0
8.67465 1631.0
8.95874 23953.0
9.24283 834.0
9.52692 745.0
9.81101 571.0
10.0951 478.0
10.3792 466.0
10.6633 527.0
10.9474 1335.0
11.2315 903.0
11.5156 412.0
11.7997 377.0
12.0837 387.0
12.3678 372.0
12.6519 445.0
12.936 3605.0
13.2201 1209.0
13.5042 406.0
13.7883 491.0
14.0724 332.0
14.3565 325.0
14.6406 451.0
14.9247 365.0
15.2088 407.0
15.4928 407.0
15.7769 5401.0
16.061 429.0
16.3451 286.0
16.6292 268.0
16.9133 294.0
17.1974 304.0
17.4815 344.0
17.7656 839.0
18.0497 1400.0
18.3338 309.0
18.6179 620.0
18.9019 329.0
19.186 604.0
19.4701 259.0
19.7542 239.0
20.0383 266.0
20.3224 589.0
20.6065 326.0
20.8906 1589.0
21.1747 297.0
21.4588 406.0
21.7429 4801.0
22.0269 927.0
22.311 3237.0
22.5951 9568.0
22.8792 1874.0
23.1633 572.0
23.4474 293.0
23.7315 527.0
24.0156 208.0
24.2997 229.0
24.5838 217.0
24.8679 228.0
25.152 271.0
25.436 820.0
25.7201 455.0
26.0042 1396.0
26.2883 1448.0
26.5724 522.0
26.8565 409.0
27.1406 1464.0
27.4247 299.0
27.7088 1086.0
27.9929 260.0
28.277 259.0
28.5611 425.0
28.8451 1068.0
29.1292 717.0
29.4133 2721.0
29.6974 1961.0
29.9815 756.0
30.2656 2596.0
30.5497 423.0
30.8338 5016.0
31.1179 703.0
31.402 350.0
31.6861 260.0
31.9702 504.0
32.2542 514.0
32.5383 994.0
32.8224 263.0
33.1065 757.0
33.3906 396.0
33.6747 2075.0
33.9588 320.0
34.2429 503.0
34.527 198.0
34.8111 200.0
35.0952 835.0
35.3793 245.0
35.6633 1104.0
35.9474 279.0
36.2315 286.0
36.5156 517.0
36.7997 315.0
37.0838 385.0
37.3679 331.0
37.652 213.0
37.9361 443.0
38.2202 420.0
38.5043 539.0
38.7884 431.0
39.0724 590.0
39.3565 512.0
39.6406 436.0
39.9247 333.0
40.2088 451.0
40.4929 506.0
40.777 660.0
41.0611 564.0
41.3452 168.0
41.6293 163.0
41.9134 212.0
42.1975 648.0
42.4815 493.0
42.7656 306.0
43.0497 320.0
43.3338 300.0
43.6179 157.0
43.902 338.0
44.1861 399.0
44.4702 753.0
44.7543 394.0
45.0384 368.0
45.3225 228.0
45.6066 353.0
45.8906 216.0
46.1747 287.0
46.4588 734.0
46.7429 291.0
47.027 285.0
47.3111 303.0
47.5952 276.0
47.8793 626.0
48.1634 259.0
48.4475 353.0
48.7316 408.0
49.0156 376.0
49.2997 278.0
49.5838 102.0
49.8679 300.0
50.152 304.0
50.4361 190.0
50.7202 138.0
51.0043 210.0
51.2884 274.0
51.5725 173.0
51.8566 386.0
52.1407 521.0
52.4247 269.0
52.7088 328.0
52.9929 304.0
53.277 289.0
53.5611 491.0
53.8452 435.0
54.1293 678.0
54.4134 419.0
54.6975 288.0
54.9816 270.0
55.2657 469.0
55.5498 165.0
55.8338 180.0
56.1179 348.0
56.402 175.0
56.6861 326.0
56.9702 289.0
57.2543 325.0
57.5384 269.0
57.8225 356.0
58.1066 196.0
58.3907 239.0
58.6748 257.0
58.9589 274.0
59.2429 250.0
59.527 285.0
59.8111 391.0
60.0952 261.0
60.3793 223.0
60.6634 292.0
60.9475 487.0
61.2316 507.0
61.5157 337.0
61.7998 262.0
62.0839 329.0
62.368 346.0
62.652 455.0
62.9361 388.0
63.2202 247.0
63.5043 260.0
63.7884 272.0
64.0725 300.0
64.3566 243.0
64.6407 212.0
64.9248 225.0
65.2089 224.0
65.493 242.0
65.7771 335.0
66.0611 347.0
66.3452 351.0
66.6293 190.0
66.9134 167.0
67.1975 198.0
67.4816 210.0
67.7657 245.0
68.0498 184.0
68.3339 224.0
68.618 368.0
68.9021 236.0
69.1862 170.0
69.4702 179.0
69.7543 186.0
70.0384 246.0
70.3225 277.0
70.6066 349.0
70.8907 520.0
71.1748 393.0
71.4589 337.0
71.743 288.0
72.0271 355.0
72.3112 391.0
72.5952 407.0
72.8793 302.0
73.1634 203.0
73.4475 142.0
73.7316 190.0
74.0157 227.0
74.2998 286.0
74.5839 290.0
74.868 257.0
75.1521 215.0
75.4362 274.0
75.7203 257.0
76.0043 276.0
76.2884 214.0
76.5725 162.0
76.8566 184.0
77.1407 142.0
77.4248 115.0
77.7089 133.0
77.993 161.0
78.2771 177.0
78.5612 241.0
78.8453 216.0
79.1294 260.0
79.4134 216.0
79.6975 254.0
79.9816 236.0
80.2657 219.0
80.5498 237.0
80.8339 263.0
81.118 207.0
81.4021 155.0
81.6862 195.0
81.9703 151.0
82.2544 167.0
82.5385 205.0
82.8225 168.0
83.1066 163.0
83.3907 138.0
83.6748 108.0
83.9589 133.0
84.243 130.0
84.5271 119.0
84.8112 150.0
85.0953 160.0
85.3794 167.0
85.6635 141.0
85.9476 127.0
86.2316 159.0
86.5157 163.0
86.7998 152.0
87.0839 146.0
87.368 135.0
87.6521 150.0
87.9362 120.0
88.2203 125.0
88.5044 131.0
88.7885 118.0
89.0726 103.0
89.3567 104.0
89.6407 130.0
89.9248 144.0
89.9415 123.0