File: code/XRD_Analysis/Zeolites/data_files/SAPO-14/assynth/20241001_SAPO-14-1_AP.xy
4.98146 912.0
5.26555 932.0
5.54964 900.0
5.83373 867.0
6.11782 806.0
6.40191 725.0
6.68601 729.0
6.9701 713.0
7.25419 662.0
7.53828 658.0
7.82237 654.0
8.10646 658.0
8.39055 700.0
8.67465 1072.0
8.95874 31003.0
9.24283 807.0
9.52692 787.0
9.81101 503.0
10.0951 491.0
10.3792 441.0
10.6633 471.0
10.9474 820.0
11.2315 721.0
11.5156 427.0
11.7997 399.0
12.0837 373.0
12.3678 335.0
12.6519 401.0
12.936 2287.0
13.2201 883.0
13.5042 383.0
13.7883 475.0
14.0724 336.0
14.3565 317.0
14.6406 382.0
14.9247 308.0
15.2088 345.0
15.4928 338.0
15.7769 3953.0
16.061 378.0
16.3451 301.0
16.6292 307.0
16.9133 256.0
17.1974 251.0
17.4815 295.0
17.7656 456.0
18.0497 1385.0
18.3338 246.0
18.6179 568.0
18.9019 303.0
19.186 456.0
19.4701 247.0
19.7542 400.0
20.0383 258.0
20.3224 601.0
20.6065 294.0
20.8906 1228.0
21.1747 283.0
21.4588 353.0
21.7429 4895.0
22.0269 566.0
22.311 1959.0
22.5951 6533.0
22.8792 1112.0
23.1633 433.0
23.4474 258.0
23.7315 431.0
24.0156 220.0
24.2997 605.0
24.5838 208.0
24.8679 192.0
25.152 201.0
25.436 776.0
25.7201 365.0
26.0042 570.0
26.2883 1314.0
26.5724 379.0
26.8565 339.0
27.1406 1526.0
27.4247 242.0
27.7088 746.0
27.9929 246.0
28.277 262.0
28.5611 483.0
28.8451 940.0
29.1292 413.0
29.4133 2009.0
29.6974 1651.0
29.9815 540.0
30.2656 1613.0
30.5497 369.0
30.8338 4284.0
31.1179 580.0
31.402 303.0
31.6861 214.0
31.9702 414.0
32.2542 442.0
32.5383 901.0
32.8224 243.0
33.1065 646.0
33.3906 319.0
33.6747 1308.0
33.9588 303.0
34.2429 493.0
34.527 223.0
34.8111 204.0
35.0952 679.0
35.3793 201.0
35.6633 862.0
35.9474 264.0
36.2315 214.0
36.5156 617.0
36.7997 247.0
37.0838 409.0
37.3679 297.0
37.652 149.0
37.9361 378.0
38.2202 344.0
38.5043 471.0
38.7884 519.0
39.0724 696.0
39.3565 449.0
39.6406 440.0
39.9247 301.0
40.2088 333.0
40.4929 494.0
40.777 763.0
41.0611 400.0
41.3452 155.0
41.6293 155.0
41.9134 223.0
42.1975 639.0
42.4815 254.0
42.7656 400.0
43.0497 284.0
43.3338 275.0
43.6179 185.0
43.902 266.0
44.1861 333.0
44.4702 729.0
44.7543 298.0
45.0384 295.0
45.3225 232.0
45.6066 326.0
45.8906 183.0
46.1747 284.0
46.4588 514.0
46.7429 289.0
47.027 292.0
47.3111 391.0
47.5952 264.0
47.8793 436.0
48.1634 285.0
48.4475 360.0
48.7316 396.0
49.0156 329.0
49.2997 251.0
49.5838 135.0
49.8679 268.0
50.152 251.0
50.4361 149.0
50.7202 167.0
51.0043 220.0
51.2884 197.0
51.5725 158.0
51.8566 299.0
52.1407 479.0
52.4247 314.0
52.7088 276.0
52.9929 287.0
53.277 275.0
53.5611 425.0
53.8452 445.0
54.1293 550.0
54.4134 470.0
54.6975 230.0
54.9816 227.0
55.2657 306.0
55.5498 141.0
55.8338 189.0
56.1179 277.0
56.402 168.0
56.6861 334.0
56.9702 264.0
57.2543 264.0
57.5384 291.0
57.8225 220.0
58.1066 227.0
58.3907 276.0
58.6748 160.0
58.9589 263.0
59.2429 229.0
59.527 268.0
59.8111 376.0
60.0952 207.0
60.3793 200.0
60.6634 344.0
60.9475 415.0
61.2316 344.0
61.5157 292.0
61.7998 236.0
62.0839 297.0
62.368 315.0
62.652 371.0
62.9361 302.0
63.2202 203.0
63.5043 248.0
63.7884 226.0
64.0725 304.0
64.3566 235.0
64.6407 128.0
64.9248 170.0
65.2089 243.0
65.493 243.0
65.7771 292.0
66.0611 355.0
66.3452 260.0
66.6293 162.0
66.9134 152.0
67.1975 150.0
67.4816 207.0
67.7657 216.0
68.0498 166.0
68.3339 244.0
68.618 256.0
68.9021 165.0
69.1862 182.0
69.4702 180.0
69.7543 215.0
70.0384 197.0
70.3225 214.0
70.6066 372.0
70.8907 380.0
71.1748 335.0
71.4589 290.0
71.743 288.0
72.0271 285.0
72.3112 308.0
72.5952 406.0
72.8793 241.0
73.1634 182.0
73.4475 132.0
73.7316 158.0
74.0157 233.0
74.2998 251.0
74.5839 247.0
74.868 247.0
75.1521 215.0
75.4362 227.0
75.7203 286.0
76.0043 268.0
76.2884 188.0
76.5725 183.0
76.8566 166.0
77.1407 126.0
77.4248 142.0
77.7089 179.0
77.993 172.0
78.2771 199.0
78.5612 233.0
78.8453 210.0
79.1294 254.0
79.4134 241.0
79.6975 248.0
79.9816 217.0
80.2657 242.0
80.5498 232.0
80.8339 224.0
81.118 219.0
81.4021 191.0
81.6862 172.0
81.9703 180.0
82.2544 194.0
82.5385 201.0
82.8225 184.0
83.1066 190.0
83.3907 176.0
83.6748 157.0
83.9589 167.0
84.243 158.0
84.5271 167.0
84.8112 128.0
85.0953 169.0
85.3794 158.0
85.6635 149.0
85.9476 149.0
86.2316 175.0
86.5157 170.0
86.7998 165.0
87.0839 165.0
87.368 149.0
87.6521 133.0
87.9362 125.0
88.2203 138.0
88.5044 149.0
88.7885 138.0
89.0726 118.0
89.3567 97.0
89.6407 139.0
89.9248 139.0
89.9415 145.0