File: code/XRD_Analysis/Zeolites/data_files/SAPO-14/assynth/20241028_SAPO-14-3-assynth-Probe-3.xy
4.98146 993.0
5.26555 909.0
5.54964 845.0
5.83373 931.0
6.11782 1205.0
6.40191 970.0
6.68601 725.0
6.9701 701.0
7.25419 688.0
7.53828 662.0
7.82237 647.0
8.10646 677.0
8.39055 717.0
8.67465 1309.0
8.95874 22242.0
9.24283 1094.0
9.52692 3489.0
9.81101 553.0
10.0951 487.0
10.3792 472.0
10.6633 482.0
10.9474 686.0
11.2315 2275.0
11.5156 497.0
11.7997 506.0
12.0837 488.0
12.3678 472.0
12.6519 496.0
12.936 1214.0
13.2201 755.0
13.5042 557.0
13.7883 426.0
14.0724 388.0
14.3565 313.0
14.6406 360.0
14.9247 379.0
15.2088 382.0
15.4928 369.0
15.7769 2730.0
16.061 953.0
16.3451 362.0
16.6292 336.0
16.9133 345.0
17.1974 333.0
17.4815 550.0
17.7656 662.0
18.0497 3722.0
18.3338 373.0
18.6179 406.0
18.9019 334.0
19.186 781.0
19.4701 268.0
19.7542 297.0
20.0383 285.0
20.3224 464.0
20.6065 1517.0
20.8906 3243.0
21.1747 321.0
21.4588 373.0
21.7429 2406.0
22.0269 930.0
22.311 3375.0
22.5951 5643.0
22.8792 4572.0
23.1633 639.0
23.4474 409.0
23.7315 403.0
24.0156 355.0
24.2997 346.0
24.5838 335.0
24.8679 344.0
25.152 708.0
25.436 1136.0
25.7201 548.0
26.0042 713.0
26.2883 3237.0
26.5724 658.0
26.8565 358.0
27.1406 1591.0
27.4247 375.0
27.7088 1392.0
27.9929 352.0
28.277 536.0
28.5611 409.0
28.8451 1300.0
29.1292 1576.0
29.4133 1251.0
29.6974 2339.0
29.9815 706.0
30.2656 1629.0
30.5497 1479.0
30.8338 4213.0
31.1179 1238.0
31.402 586.0
31.6861 322.0
31.9702 402.0
32.2542 891.0
32.5383 863.0
32.8224 382.0
33.1065 521.0
33.3906 535.0
33.6747 1340.0
33.9588 508.0
34.2429 383.0
34.527 307.0
34.8111 273.0
35.0952 893.0
35.3793 397.0
35.6633 1466.0
35.9474 424.0
36.2315 449.0
36.5156 1060.0
36.7997 433.0
37.0838 332.0
37.3679 427.0
37.652 236.0
37.9361 399.0
38.2202 288.0
38.5043 623.0
38.7884 362.0
39.0724 841.0
39.3565 592.0
39.6406 411.0
39.9247 320.0
40.2088 516.0
40.4929 813.0
40.777 513.0
41.0611 738.0
41.3452 185.0
41.6293 207.0
41.9134 223.0
42.1975 631.0
42.4815 576.0
42.7656 595.0
43.0497 342.0
43.3338 404.0
43.6179 219.0
43.902 302.0
44.1861 541.0
44.4702 638.0
44.7543 404.0
45.0384 568.0
45.3225 298.0
45.6066 333.0
45.8906 243.0
46.1747 464.0
46.4588 657.0
46.7429 370.0
47.027 393.0
47.3111 354.0
47.5952 375.0
47.8793 611.0
48.1634 417.0
48.4475 378.0
48.7316 512.0
49.0156 397.0
49.2997 362.0
49.5838 215.0
49.8679 275.0
50.152 355.0
50.4361 255.0
50.7202 233.0
51.0043 311.0
51.2884 307.0
51.5725 192.0
51.8566 453.0
52.1407 575.0
52.4247 369.0
52.7088 301.0
52.9929 424.0
53.277 336.0
53.5611 579.0
53.8452 501.0
54.1293 787.0
54.4134 598.0
54.6975 337.0
54.9816 309.0
55.2657 456.0
55.5498 285.0
55.8338 278.0
56.1179 502.0
56.402 230.0
56.6861 389.0
56.9702 300.0
57.2543 332.0
57.5384 297.0
57.8225 363.0
58.1066 291.0
58.3907 293.0
58.6748 320.0
58.9589 313.0
59.2429 313.0
59.527 371.0
59.8111 511.0
60.0952 387.0
60.3793 306.0
60.6634 328.0
60.9475 654.0
61.2316 628.0
61.5157 420.0
61.7998 354.0
62.0839 377.0
62.368 378.0
62.652 480.0
62.9361 465.0
63.2202 316.0
63.5043 295.0
63.7884 307.0
64.0725 318.0
64.3566 363.0
64.6407 227.0
64.9248 227.0
65.2089 279.0
65.493 233.0
65.7771 346.0
66.0611 455.0
66.3452 350.0
66.6293 247.0
66.9134 222.0
67.1975 254.0
67.4816 269.0
67.7657 252.0
68.0498 229.0
68.3339 245.0
68.618 384.0
68.9021 286.0
69.1862 232.0
69.4702 240.0
69.7543 198.0
70.0384 262.0
70.3225 330.0
70.6066 466.0
70.8907 495.0
71.1748 442.0
71.4589 331.0
71.743 299.0
72.0271 429.0
72.3112 416.0
72.5952 493.0
72.8793 355.0
73.1634 285.0
73.4475 164.0
73.7316 210.0
74.0157 292.0
74.2998 328.0
74.5839 362.0
74.868 337.0
75.1521 328.0
75.4362 322.0
75.7203 313.0
76.0043 319.0
76.2884 231.0
76.5725 207.0
76.8566 229.0
77.1407 199.0
77.4248 189.0
77.7089 169.0
77.993 173.0
78.2771 237.0
78.5612 268.0
78.8453 291.0
79.1294 284.0
79.4134 274.0
79.6975 282.0
79.9816 308.0
80.2657 289.0
80.5498 270.0
80.8339 284.0
81.118 266.0
81.4021 192.0
81.6862 221.0
81.9703 174.0
82.2544 196.0
82.5385 259.0
82.8225 225.0
83.1066 205.0
83.3907 172.0
83.6748 129.0
83.9589 170.0
84.243 189.0
84.5271 148.0
84.8112 180.0
85.0953 175.0
85.3794 189.0
85.6635 173.0
85.9476 172.0
86.2316 168.0
86.5157 219.0
86.7998 180.0
87.0839 173.0
87.368 197.0
87.6521 154.0
87.9362 174.0
88.2203 122.0
88.5044 165.0
88.7885 143.0
89.0726 161.0
89.3567 136.0
89.6407 175.0
89.9248 142.0
89.9415 175.0