File: code/XRD_Analysis/Zeolites/data_files/SAPO-14_SAPO-34_comp/calcined/20241019_SAPO-14_SAPO-34_composite_Probe-2_calc.xy
4.98146 987.0
5.26555 892.0
5.54964 815.0
5.83373 779.0
6.11782 759.0
6.40191 758.0
6.68601 716.0
6.9701 720.0
7.25419 701.0
7.53828 673.0
7.82237 660.0
8.10646 609.0
8.39055 646.0
8.67465 676.0
8.95874 5863.0
9.24283 706.0
9.52692 9117.0
9.81101 642.0
10.0951 556.0
10.3792 568.0
10.6633 565.0
10.9474 706.0
11.2315 1107.0
11.5156 520.0
11.7997 540.0
12.0837 1068.0
12.3678 504.0
12.6519 535.0
12.936 3071.0
13.2201 2339.0
13.5042 550.0
13.7883 1874.0
14.0724 1105.0
14.3565 487.0
14.6406 481.0
14.9247 524.0
15.2088 480.0
15.4928 524.0
15.7769 474.0
16.061 956.0
16.3451 735.0
16.6292 547.0
16.9133 529.0
17.1974 510.0
17.4815 584.0
17.7656 1049.0
18.0497 3745.0
18.3338 764.0
18.6179 566.0
18.9019 642.0
19.186 1134.0
19.4701 628.0
19.7542 1070.0
20.0383 766.0
20.3224 2691.0
20.6065 1494.0
20.8906 2328.0
21.1747 949.0
21.4588 3015.0
21.7429 1394.0
22.0269 1430.0
22.311 791.0
22.5951 1129.0
22.8792 1178.0
23.1633 1375.0
23.4474 1193.0
23.7315 854.0
24.0156 798.0
24.2997 949.0
24.5838 756.0
24.8679 1177.0
25.152 2490.0
25.436 908.0
25.7201 804.0
26.0042 1026.0
26.2883 1270.0
26.5724 1414.0
26.8565 946.0
27.1406 1456.0
27.4247 3649.0
27.7088 1326.0
27.9929 1118.0
28.277 1019.0
28.5611 857.0
28.8451 850.0
29.1292 1237.0
29.4133 961.0
29.6974 1878.0
29.9815 1150.0
30.2656 1145.0
30.5497 876.0
30.8338 2620.0
31.1179 1644.0
31.402 1705.0
31.6861 774.0
31.9702 892.0
32.2542 728.0
32.5383 767.0
32.8224 650.0
33.1065 738.0
33.3906 771.0
33.6747 792.0
33.9588 573.0
34.2429 599.0
34.527 511.0
34.8111 876.0
35.0952 470.0
35.3793 756.0
35.6633 814.0
35.9474 517.0
36.2315 809.0
36.5156 642.0
36.7997 606.0
37.0838 474.0
37.3679 456.0
37.652 400.0
37.9361 351.0
38.2202 381.0
38.5043 493.0
38.7884 448.0
39.0724 439.0
39.3565 431.0
39.6406 431.0
39.9247 510.0
40.2088 538.0
40.4929 415.0
40.777 399.0
41.0611 402.0
41.3452 389.0
41.6293 399.0
41.9134 502.0
42.1975 456.0
42.4815 506.0
42.7656 464.0
43.0497 395.0
43.3338 429.0
43.6179 396.0
43.902 512.0
44.1861 424.0
44.4702 396.0
44.7543 420.0
45.0384 392.0
45.3225 330.0
45.6066 451.0
45.8906 387.0
46.1747 424.0
46.4588 383.0
46.7429 423.0
47.027 379.0
47.3111 393.0
47.5952 414.0
47.8793 429.0
48.1634 488.0
48.4475 356.0
48.7316 498.0
49.0156 393.0
49.2997 570.0
49.5838 459.0
49.8679 393.0
50.152 397.0
50.4361 340.0
50.7202 344.0
51.0043 445.0
51.2884 466.0
51.5725 393.0
51.8566 382.0
52.1407 368.0
52.4247 369.0
52.7088 386.0
52.9929 409.0
53.277 376.0
53.5611 439.0
53.8452 531.0
54.1293 384.0
54.4134 389.0
54.6975 394.0
54.9816 423.0
55.2657 406.0
55.5498 446.0
55.8338 395.0
56.1179 492.0
56.402 341.0
56.6861 501.0
56.9702 414.0
57.2543 358.0
57.5384 353.0
57.8225 363.0
58.1066 348.0
58.3907 322.0
58.6748 325.0
58.9589 356.0
59.2429 324.0
59.527 357.0
59.8111 381.0
60.0952 353.0
60.3793 388.0
60.6634 330.0
60.9475 322.0
61.2316 333.0
61.5157 334.0
61.7998 357.0
62.0839 346.0
62.368 362.0
62.652 324.0
62.9361 308.0
63.2202 268.0
63.5043 319.0
63.7884 326.0
64.0725 360.0
64.3566 311.0
64.6407 342.0
64.9248 366.0
65.2089 336.0
65.493 348.0
65.7771 352.0
66.0611 392.0
66.3452 328.0
66.6293 329.0
66.9134 316.0
67.1975 372.0
67.4816 373.0
67.7657 345.0
68.0498 320.0
68.3339 300.0
68.618 333.0
68.9021 315.0
69.1862 325.0
69.4702 280.0
69.7543 316.0
70.0384 352.0
70.3225 342.0
70.6066 321.0
70.8907 310.0
71.1748 304.0
71.4589 279.0
71.743 329.0
72.0271 325.0
72.3112 273.0
72.5952 266.0
72.8793 268.0
73.1634 290.0
73.4475 275.0
73.7316 237.0
74.0157 286.0
74.2998 277.0
74.5839 269.0
74.868 274.0
75.1521 246.0
75.4362 254.0
75.7203 241.0
76.0043 301.0
76.2884 272.0
76.5725 254.0
76.8566 257.0
77.1407 257.0
77.4248 263.0
77.7089 270.0
77.993 268.0
78.2771 266.0
78.5612 261.0
78.8453 200.0
79.1294 253.0
79.4134 242.0
79.6975 211.0
79.9816 231.0
80.2657 209.0
80.5498 215.0
80.8339 225.0
81.118 206.0
81.4021 205.0
81.6862 188.0
81.9703 195.0
82.2544 185.0
82.5385 210.0
82.8225 193.0
83.1066 185.0
83.3907 211.0
83.6748 200.0
83.9589 186.0
84.243 173.0
84.5271 207.0
84.8112 181.0
85.0953 174.0
85.3794 168.0
85.6635 196.0
85.9476 175.0
86.2316 175.0
86.5157 164.0
86.7998 186.0
87.0839 164.0
87.368 157.0
87.6521 150.0
87.9362 160.0
88.2203 168.0
88.5044 161.0
88.7885 168.0
89.0726 179.0
89.3567 144.0
89.6407 157.0
89.9248 164.0
89.9415 148.0