File: code/XRD_Analysis/External Sources/Alex_SAPO/20220715_SAPO-34_70_1_220707_calc650C_20h.xy
4.98146 1538.0
5.26555 1427.0
5.54964 1408.0
5.83373 1230.0
6.11782 1141.0
6.40191 1089.0
6.68601 1162.0
6.9701 1025.0
7.25419 995.0
7.53828 1026.0
7.82237 922.0
8.10646 914.0
8.39055 942.0
8.67465 865.0
8.95874 852.0
9.24283 1013.0
9.52692 15436.0
9.81101 964.0
10.0951 884.0
10.3792 848.0
10.6633 797.0
10.9474 844.0
11.2315 810.0
11.5156 830.0
11.7997 817.0
12.0837 789.0
12.3678 800.0
12.6519 837.0
12.936 3829.0
13.2201 915.0
13.5042 904.0
13.7883 672.0
14.0724 783.0
14.3565 651.0
14.6406 688.0
14.9247 700.0
15.2088 705.0
15.4928 714.0
15.7769 741.0
16.061 1854.0
16.3451 867.0
16.6292 912.0
16.9133 1062.0
17.1974 1086.0
17.4815 1001.0
17.7656 1553.0
18.0497 908.0
18.3338 861.0
18.6179 823.0
18.9019 836.0
19.186 1427.0
19.4701 866.0
19.7542 861.0
20.0383 984.0
20.3224 1084.0
20.6065 1575.0
20.8906 2433.0
21.1747 1314.0
21.4588 1471.0
21.7429 957.0
22.0269 995.0
22.311 948.0
22.5951 1024.0
22.8792 1117.0
23.1633 1631.0
23.4474 1138.0
23.7315 1191.0
24.0156 1195.0
24.2997 1331.0
24.5838 1241.0
24.8679 1513.0
25.152 1666.0
25.436 1326.0
25.7201 1308.0
26.0042 1716.0
26.2883 1681.0
26.5724 1305.0
26.8565 1252.0
27.1406 1081.0
27.4247 1104.0
27.7088 1181.0
27.9929 1294.0
28.277 1534.0
28.5611 1184.0
28.8451 1137.0
29.1292 1151.0
29.4133 1190.0
29.6974 1325.0
29.9815 1325.0
30.2656 1503.0
30.5497 1857.0
30.8338 3156.0
31.1179 2877.0
31.402 2308.0
31.6861 1448.0
31.9702 1356.0
32.2542 1149.0
32.5383 1153.0
32.8224 1021.0
33.1065 942.0
33.3906 932.0
33.6747 1034.0
33.9588 898.0
34.2429 835.0
34.527 870.0
34.8111 981.0
35.0952 820.0
35.3793 787.0
35.6633 740.0
35.9474 725.0
36.2315 809.0
36.5156 646.0
36.7997 646.0
37.0838 634.0
37.3679 588.0
37.652 604.0
37.9361 578.0
38.2202 558.0
38.5043 610.0
38.7884 605.0
39.0724 621.0
39.3565 620.0
39.6406 615.0
39.9247 669.0
40.2088 634.0
40.4929 586.0
40.777 570.0
41.0611 555.0
41.3452 567.0
41.6293 592.0
41.9134 540.0
42.1975 574.0
42.4815 555.0
42.7656 612.0
43.0497 585.0
43.3338 621.0
43.6179 569.0
43.902 589.0
44.1861 613.0
44.4702 588.0
44.7543 553.0
45.0384 550.0
45.3225 569.0
45.6066 567.0
45.8906 528.0
46.1747 510.0
46.4588 524.0
46.7429 532.0
47.027 513.0
47.3111 524.0
47.5952 559.0
47.8793 572.0
48.1634 604.0
48.4475 538.0
48.7316 536.0
49.0156 570.0
49.2997 764.0
49.5838 574.0
49.8679 591.0
50.152 545.0
50.4361 580.0
50.7202 539.0
51.0043 601.0
51.2884 585.0
51.5725 521.0
51.8566 545.0
52.1407 500.0
52.4247 542.0
52.7088 502.0
52.9929 514.0
53.277 524.0
53.5611 570.0
53.8452 586.0
54.1293 501.0
54.4134 485.0
54.6975 495.0
54.9816 500.0
55.2657 514.0
55.5498 565.0
55.8338 560.0
56.1179 478.0
56.402 524.0
56.6861 549.0
56.9702 554.0
57.2543 487.0
57.5384 473.0
57.8225 456.0
58.1066 441.0
58.3907 448.0
58.6748 449.0
58.9589 438.0
59.2429 474.0
59.527 414.0
59.8111 461.0
60.0952 523.0
60.3793 487.0
60.6634 446.0
60.9475 462.0
61.2316 502.0
61.5157 495.0
61.7998 549.0
62.0839 487.0
62.368 450.0
62.652 471.0
62.9361 473.0
63.2202 442.0
63.5043 458.0
63.7884 439.0
64.0725 456.0
64.3566 423.0
64.6407 411.0
64.9248 459.0
65.2089 420.0
65.493 438.0
65.7771 464.0
66.0611 438.0
66.3452 461.0
66.6293 493.0
66.9134 514.0
67.1975 502.0
67.4816 432.0
67.7657 442.0
68.0498 429.0
68.3339 457.0
68.618 447.0
68.9021 431.0
69.1862 441.0
69.4702 408.0
69.7543 425.0
70.0384 456.0
70.3225 420.0
70.6066 391.0
70.8907 398.0
71.1748 426.0
71.4589 440.0
71.743 384.0
72.0271 375.0
72.3112 409.0
72.5952 414.0
72.8793 382.0
73.1634 400.0
73.4475 383.0
73.7316 397.0
74.0157 346.0
74.2998 408.0
74.5839 366.0
74.868 369.0
75.1521 329.0
75.4362 381.0
75.7203 365.0
76.0043 373.0
76.2884 355.0
76.5725 300.0
76.8566 346.0
77.1407 342.0
77.4248 326.0
77.7089 332.0
77.993 344.0
78.2771 303.0
78.5612 316.0
78.8453 320.0
79.1294 285.0
79.4134 291.0
79.6975 295.0
79.9816 294.0
80.2657 309.0
80.5498 282.0
80.8339 309.0
81.118 313.0
81.4021 273.0
81.6862 320.0
81.9703 293.0
82.2544 269.0
82.5385 303.0
82.8225 306.0
83.1066 289.0
83.3907 282.0
83.6748 263.0
83.9589 242.0
84.243 264.0
84.5271 238.0
84.8112 238.0
85.0953 243.0
85.3794 275.0
85.6635 250.0
85.9476 248.0
86.2316 225.0
86.5157 225.0
86.7998 245.0
87.0839 210.0
87.368 224.0
87.6521 206.0
87.9362 242.0
88.2203 238.0
88.5044 253.0
88.7885 219.0
89.0726 185.0
89.3567 232.0
89.6407 215.0
89.9248 229.0
89.9415 220.0