File: code/XRD_Analysis/External Sources/Alex_SAPO/20220715_SAPO-34_70_1_220707_precalc.xy
4.98146 1512.0
5.26555 1397.0
5.54964 1318.0
5.83373 1185.0
6.11782 1128.0
6.40191 1090.0
6.68601 1119.0
6.9701 1033.0
7.25419 1022.0
7.53828 989.0
7.82237 950.0
8.10646 912.0
8.39055 899.0
8.67465 885.0
8.95874 895.0
9.24283 1579.0
9.52692 7418.0
9.81101 1086.0
10.0951 923.0
10.3792 836.0
10.6633 835.0
10.9474 797.0
11.2315 740.0
11.5156 754.0
11.7997 764.0
12.0837 783.0
12.3678 816.0
12.6519 1156.0
12.936 932.0
13.2201 814.0
13.5042 666.0
13.7883 805.0
14.0724 1377.0
14.3565 883.0
14.6406 842.0
14.9247 832.0
15.2088 882.0
15.4928 941.0
15.7769 1423.0
16.061 2188.0
16.3451 1228.0
16.6292 1380.0
16.9133 1503.0
17.1974 1416.0
17.4815 1340.0
17.7656 1927.0
18.0497 1382.0
18.3338 1097.0
18.6179 1010.0
18.9019 1325.0
19.186 1123.0
19.4701 1296.0
19.7542 1516.0
20.0383 1681.0
20.3224 2772.0
20.6065 7282.0
20.8906 2290.0
21.1747 2101.0
21.4588 1203.0
21.7429 800.0
22.0269 1343.0
22.311 1099.0
22.5951 907.0
22.8792 1182.0
23.1633 1191.0
23.4474 1098.0
23.7315 1170.0
24.0156 1349.0
24.2997 1393.0
24.5838 1550.0
24.8679 1761.0
25.152 3787.0
25.436 1649.0
25.7201 4174.0
26.0042 1508.0
26.2883 1308.0
26.5724 1163.0
26.8565 1038.0
27.1406 887.0
27.4247 1185.0
27.7088 945.0
27.9929 1023.0
28.277 1382.0
28.5611 819.0
28.8451 853.0
29.1292 888.0
29.4133 1890.0
29.6974 1279.0
29.9815 1658.0
30.2656 2629.0
30.5497 5378.0
30.8338 3150.0
31.1179 4595.0
31.402 1877.0
31.6861 1582.0
31.9702 1162.0
32.2542 1512.0
32.5383 951.0
32.8224 871.0
33.1065 869.0
33.3906 825.0
33.6747 972.0
33.9588 867.0
34.2429 1235.0
34.527 992.0
34.8111 819.0
35.0952 626.0
35.3793 632.0
35.6633 613.0
35.9474 839.0
36.2315 1074.0
36.5156 541.0
36.7997 480.0
37.0838 532.0
37.3679 536.0
37.652 512.0
37.9361 571.0
38.2202 604.0
38.5043 691.0
38.7884 794.0
39.0724 776.0
39.3565 746.0
39.6406 990.0
39.9247 569.0
40.2088 525.0
40.4929 518.0
40.777 509.0
41.0611 466.0
41.3452 500.0
41.6293 477.0
41.9134 488.0
42.1975 456.0
42.4815 523.0
42.7656 545.0
43.0497 990.0
43.3338 1043.0
43.6179 654.0
43.902 585.0
44.1861 489.0
44.4702 527.0
44.7543 434.0
45.0384 506.0
45.3225 440.0
45.6066 417.0
45.8906 404.0
46.1747 402.0
46.4588 475.0
46.7429 554.0
47.027 521.0
47.3111 658.0
47.5952 848.0
47.8793 531.0
48.1634 516.0
48.4475 531.0
48.7316 1049.0
49.0156 1560.0
49.2997 679.0
49.5838 727.0
49.8679 739.0
50.152 789.0
50.4361 712.0
50.7202 933.0
51.0043 980.0
51.2884 679.0
51.5725 682.0
51.8566 495.0
52.1407 512.0
52.4247 456.0
52.7088 510.0
52.9929 1028.0
53.277 677.0
53.5611 590.0
53.8452 522.0
54.1293 559.0
54.4134 728.0
54.6975 536.0
54.9816 529.0
55.2657 639.0
55.5498 743.0
55.8338 939.0
56.1179 691.0
56.402 525.0
56.6861 497.0
56.9702 434.0
57.2543 398.0
57.5384 397.0
57.8225 366.0
58.1066 419.0
58.3907 385.0
58.6748 426.0
58.9589 383.0
59.2429 462.0
59.527 731.0
59.8111 454.0
60.0952 442.0
60.3793 431.0
60.6634 514.0
60.9475 636.0
61.2316 724.0
61.5157 535.0
61.7998 442.0
62.0839 508.0
62.368 557.0
62.652 494.0
62.9361 482.0
63.2202 549.0
63.5043 475.0
63.7884 430.0
64.0725 430.0
64.3566 504.0
64.6407 501.0
64.9248 438.0
65.2089 441.0
65.493 443.0
65.7771 504.0
66.0611 724.0
66.3452 642.0
66.6293 675.0
66.9134 707.0
67.1975 700.0
67.4816 510.0
67.7657 476.0
68.0498 384.0
68.3339 379.0
68.618 417.0
68.9021 455.0
69.1862 537.0
69.4702 491.0
69.7543 544.0
70.0384 629.0
70.3225 684.0
70.6066 726.0
70.8907 722.0
71.1748 681.0
71.4589 560.0
71.743 475.0
72.0271 579.0
72.3112 541.0
72.5952 535.0
72.8793 438.0
73.1634 376.0
73.4475 368.0
73.7316 409.0
74.0157 426.0
74.2998 398.0
74.5839 369.0
74.868 442.0
75.1521 496.0
75.4362 454.0
75.7203 403.0
76.0043 373.0
76.2884 410.0
76.5725 305.0
76.8566 367.0
77.1407 404.0
77.4248 376.0
77.7089 378.0
77.993 365.0
78.2771 303.0
78.5612 320.0
78.8453 314.0
79.1294 356.0
79.4134 341.0
79.6975 368.0
79.9816 352.0
80.2657 367.0
80.5498 401.0
80.8339 431.0
81.118 341.0
81.4021 367.0
81.6862 356.0
81.9703 350.0
82.2544 323.0
82.5385 335.0
82.8225 308.0
83.1066 369.0
83.3907 310.0
83.6748 351.0
83.9589 348.0
84.243 322.0
84.5271 310.0
84.8112 253.0
85.0953 280.0
85.3794 277.0
85.6635 256.0
85.9476 253.0
86.2316 255.0
86.5157 286.0
86.7998 280.0
87.0839 283.0
87.368 283.0
87.6521 250.0
87.9362 276.0
88.2203 252.0
88.5044 247.0
88.7885 266.0
89.0726 221.0
89.3567 230.0
89.6407 219.0
89.9248 233.0
89.9415 241.0