File: code/XRD_Analysis/External Sources/Alex_SAPO/20221208_SAPO-18_221202_calc550C.xy
4.98146 1522.0
5.26555 1360.0
5.54964 1299.0
5.83373 1299.0
6.11782 1228.0
6.40191 1222.0
6.68601 1117.0
6.9701 1097.0
7.25419 1037.0
7.53828 949.0
7.82237 993.0
8.10646 922.0
8.39055 904.0
8.67465 960.0
8.95874 1032.0
9.24283 1659.0
9.52692 11610.0
9.81101 1621.0
10.0951 1002.0
10.3792 1182.0
10.6633 2243.0
10.9474 985.0
11.2315 785.0
11.5156 773.0
11.7997 703.0
12.0837 735.0
12.3678 761.0
12.6519 899.0
12.936 2549.0
13.2201 865.0
13.5042 1383.0
13.7883 807.0
14.0724 734.0
14.3565 652.0
14.6406 693.0
14.9247 664.0
15.2088 686.0
15.4928 708.0
15.7769 804.0
16.061 2118.0
16.3451 1130.0
16.6292 965.0
16.9133 2772.0
17.1974 2410.0
17.4815 1628.0
17.7656 1003.0
18.0497 814.0
18.3338 819.0
18.6179 830.0
18.9019 907.0
19.186 1182.0
19.4701 1035.0
19.7542 1367.0
20.0383 1528.0
20.3224 1401.0
20.6065 2847.0
20.8906 1512.0
21.1747 1774.0
21.4588 2834.0
21.7429 1328.0
22.0269 1121.0
22.311 1035.0
22.5951 1297.0
22.8792 1187.0
23.1633 1529.0
23.4474 1357.0
23.7315 1752.0
24.0156 3554.0
24.2997 1961.0
24.5838 1350.0
24.8679 1279.0
25.152 1356.0
25.436 1535.0
25.7201 1527.0
26.0042 2490.0
26.2883 2104.0
26.5724 2028.0
26.8565 1287.0
27.1406 1276.0
27.4247 1332.0
27.7088 1542.0
27.9929 2065.0
28.277 1829.0
28.5611 1321.0
28.8451 1198.0
29.1292 1226.0
29.4133 1403.0
29.6974 1613.0
29.9815 1784.0
30.2656 1718.0
30.5497 1980.0
30.8338 2187.0
31.1179 3128.0
31.402 2592.0
31.6861 1580.0
31.9702 1536.0
32.2542 1651.0
32.5383 1700.0
32.8224 1627.0
33.1065 1552.0
33.3906 1106.0
33.6747 963.0
33.9588 941.0
34.2429 893.0
34.527 880.0
34.8111 788.0
35.0952 751.0
35.3793 734.0
35.6633 755.0
35.9474 779.0
36.2315 789.0
36.5156 853.0
36.7997 709.0
37.0838 639.0
37.3679 613.0
37.652 580.0
37.9361 614.0
38.2202 604.0
38.5043 605.0
38.7884 634.0
39.0724 609.0
39.3565 635.0
39.6406 707.0
39.9247 583.0
40.2088 609.0
40.4929 631.0
40.777 612.0
41.0611 586.0
41.3452 657.0
41.6293 656.0
41.9134 652.0
42.1975 594.0
42.4815 563.0
42.7656 543.0
43.0497 610.0
43.3338 681.0
43.6179 672.0
43.902 610.0
44.1861 622.0
44.4702 623.0
44.7543 612.0
45.0384 561.0
45.3225 596.0
45.6066 517.0
45.8906 580.0
46.1747 534.0
46.4588 541.0
46.7429 551.0
47.027 528.0
47.3111 565.0
47.5952 573.0
47.8793 528.0
48.1634 576.0
48.4475 567.0
48.7316 579.0
49.0156 700.0
49.2997 755.0
49.5838 755.0
49.8679 647.0
50.152 639.0
50.4361 633.0
50.7202 647.0
51.0043 653.0
51.2884 590.0
51.5725 574.0
51.8566 615.0
52.1407 553.0
52.4247 581.0
52.7088 548.0
52.9929 522.0
53.277 571.0
53.5611 545.0
53.8452 569.0
54.1293 568.0
54.4134 572.0
54.6975 554.0
54.9816 535.0
55.2657 481.0
55.5498 584.0
55.8338 590.0
56.1179 650.0
56.402 519.0
56.6861 579.0
56.9702 517.0
57.2543 531.0
57.5384 455.0
57.8225 477.0
58.1066 445.0
58.3907 450.0
58.6748 493.0
58.9589 466.0
59.2429 531.0
59.527 564.0
59.8111 516.0
60.0952 489.0
60.3793 482.0
60.6634 488.0
60.9475 482.0
61.2316 454.0
61.5157 485.0
61.7998 500.0
62.0839 476.0
62.368 511.0
62.652 424.0
62.9361 477.0
63.2202 432.0
63.5043 461.0
63.7884 473.0
64.0725 474.0
64.3566 503.0
64.6407 477.0
64.9248 425.0
65.2089 444.0
65.493 441.0
65.7771 474.0
66.0611 456.0
66.3452 466.0
66.6293 459.0
66.9134 497.0
67.1975 480.0
67.4816 522.0
67.7657 467.0
68.0498 472.0
68.3339 474.0
68.618 431.0
68.9021 448.0
69.1862 403.0
69.4702 426.0
69.7543 395.0
70.0384 406.0
70.3225 449.0
70.6066 481.0
70.8907 443.0
71.1748 469.0
71.4589 449.0
71.743 411.0
72.0271 398.0
72.3112 409.0
72.5952 422.0
72.8793 445.0
73.1634 384.0
73.4475 404.0
73.7316 372.0
74.0157 414.0
74.2998 409.0
74.5839 388.0
74.868 416.0
75.1521 367.0
75.4362 381.0
75.7203 400.0
76.0043 358.0
76.2884 396.0
76.5725 367.0
76.8566 369.0
77.1407 368.0
77.4248 348.0
77.7089 339.0
77.993 325.0
78.2771 369.0
78.5612 358.0
78.8453 315.0
79.1294 310.0
79.4134 329.0
79.6975 315.0
79.9816 350.0
80.2657 325.0
80.5498 292.0
80.8339 336.0
81.118 305.0
81.4021 331.0
81.6862 295.0
81.9703 288.0
82.2544 294.0
82.5385 275.0
82.8225 297.0
83.1066 254.0
83.3907 299.0
83.6748 285.0
83.9589 285.0
84.243 262.0
84.5271 245.0
84.8112 237.0
85.0953 246.0
85.3794 242.0
85.6635 243.0
85.9476 244.0
86.2316 246.0
86.5157 230.0
86.7998 260.0
87.0839 261.0
87.368 241.0
87.6521 232.0
87.9362 238.0
88.2203 229.0
88.5044 231.0
88.7885 266.0
89.0726 216.0
89.3567 212.0
89.6407 232.0
89.9248 241.0
89.9415 217.0