File: code/XRD_Analysis/External Sources/Alex_SAPO/20220919_SAPO-18_220908_calc550C_4h.xy
4.98146 1125.0
5.26555 1043.0
5.54964 989.0
5.83373 927.0
6.11782 882.0
6.40191 841.0
6.68601 789.0
6.9701 774.0
7.25419 772.0
7.53828 716.0
7.82237 721.0
8.10646 660.0
8.39055 695.0
8.67465 681.0
8.95874 680.0
9.24283 1069.0
9.52692 7360.0
9.81101 1324.0
10.0951 763.0
10.3792 763.0
10.6633 1757.0
10.9474 769.0
11.2315 571.0
11.5156 603.0
11.7997 564.0
12.0837 542.0
12.3678 507.0
12.6519 589.0
12.936 1751.0
13.2201 667.0
13.5042 908.0
13.7883 565.0
14.0724 574.0
14.3565 490.0
14.6406 444.0
14.9247 521.0
15.2088 524.0
15.4928 523.0
15.7769 578.0
16.061 1265.0
16.3451 882.0
16.6292 682.0
16.9133 1562.0
17.1974 1638.0
17.4815 1260.0
17.7656 667.0
18.0497 565.0
18.3338 555.0
18.6179 540.0
18.9019 644.0
19.186 930.0
19.4701 709.0
19.7542 976.0
20.0383 897.0
20.3224 1045.0
20.6065 1520.0
20.8906 1203.0
21.1747 1050.0
21.4588 2066.0
21.7429 1554.0
22.0269 741.0
22.311 725.0
22.5951 895.0
22.8792 848.0
23.1633 1002.0
23.4474 899.0
23.7315 1107.0
24.0156 2464.0
24.2997 1412.0
24.5838 884.0
24.8679 887.0
25.152 869.0
25.436 1058.0
25.7201 1002.0
26.0042 1570.0
26.2883 1343.0
26.5724 1526.0
26.8565 935.0
27.1406 901.0
27.4247 880.0
27.7088 995.0
27.9929 1446.0
28.277 1379.0
28.5611 934.0
28.8451 897.0
29.1292 853.0
29.4133 986.0
29.6974 1130.0
29.9815 1125.0
30.2656 1293.0
30.5497 1361.0
30.8338 1439.0
31.1179 2030.0
31.402 1917.0
31.6861 1056.0
31.9702 1062.0
32.2542 1100.0
32.5383 1314.0
32.8224 1143.0
33.1065 1130.0
33.3906 774.0
33.6747 663.0
33.9588 647.0
34.2429 565.0
34.527 623.0
34.8111 557.0
35.0952 550.0
35.3793 609.0
35.6633 522.0
35.9474 505.0
36.2315 564.0
36.5156 586.0
36.7997 549.0
37.0838 461.0
37.3679 451.0
37.652 448.0
37.9361 423.0
38.2202 436.0
38.5043 414.0
38.7884 449.0
39.0724 414.0
39.3565 481.0
39.6406 498.0
39.9247 434.0
40.2088 436.0
40.4929 410.0
40.777 432.0
41.0611 456.0
41.3452 438.0
41.6293 476.0
41.9134 479.0
42.1975 438.0
42.4815 395.0
42.7656 384.0
43.0497 434.0
43.3338 494.0
43.6179 489.0
43.902 465.0
44.1861 399.0
44.4702 410.0
44.7543 412.0
45.0384 402.0
45.3225 419.0
45.6066 352.0
45.8906 364.0
46.1747 429.0
46.4588 385.0
46.7429 410.0
47.027 417.0
47.3111 419.0
47.5952 368.0
47.8793 393.0
48.1634 401.0
48.4475 368.0
48.7316 418.0
49.0156 430.0
49.2997 489.0
49.5838 512.0
49.8679 441.0
50.152 434.0
50.4361 414.0
50.7202 457.0
51.0043 455.0
51.2884 454.0
51.5725 404.0
51.8566 380.0
52.1407 386.0
52.4247 379.0
52.7088 391.0
52.9929 394.0
53.277 419.0
53.5611 385.0
53.8452 375.0
54.1293 364.0
54.4134 367.0
54.6975 362.0
54.9816 386.0
55.2657 380.0
55.5498 369.0
55.8338 464.0
56.1179 406.0
56.402 403.0
56.6861 422.0
56.9702 376.0
57.2543 382.0
57.5384 354.0
57.8225 319.0
58.1066 325.0
58.3907 295.0
58.6748 326.0
58.9589 347.0
59.2429 336.0
59.527 386.0
59.8111 376.0
60.0952 341.0
60.3793 346.0
60.6634 322.0
60.9475 346.0
61.2316 352.0
61.5157 365.0
61.7998 328.0
62.0839 290.0
62.368 321.0
62.652 323.0
62.9361 300.0
63.2202 330.0
63.5043 324.0
63.7884 291.0
64.0725 310.0
64.3566 339.0
64.6407 318.0
64.9248 303.0
65.2089 320.0
65.493 287.0
65.7771 319.0
66.0611 323.0
66.3452 305.0
66.6293 325.0
66.9134 353.0
67.1975 335.0
67.4816 339.0
67.7657 302.0
68.0498 297.0
68.3339 330.0
68.618 303.0
68.9021 284.0
69.1862 288.0
69.4702 318.0
69.7543 294.0
70.0384 287.0
70.3225 304.0
70.6066 285.0
70.8907 263.0
71.1748 304.0
71.4589 274.0
71.743 257.0
72.0271 282.0
72.3112 259.0
72.5952 282.0
72.8793 271.0
73.1634 271.0
73.4475 266.0
73.7316 280.0
74.0157 279.0
74.2998 256.0
74.5839 246.0
74.868 270.0
75.1521 303.0
75.4362 264.0
75.7203 282.0
76.0043 235.0
76.2884 279.0
76.5725 256.0
76.8566 253.0
77.1407 232.0
77.4248 274.0
77.7089 228.0
77.993 231.0
78.2771 262.0
78.5612 236.0
78.8453 229.0
79.1294 229.0
79.4134 243.0
79.6975 203.0
79.9816 225.0
80.2657 211.0
80.5498 217.0
80.8339 198.0
81.118 223.0
81.4021 205.0
81.6862 190.0
81.9703 193.0
82.2544 183.0
82.5385 212.0
82.8225 209.0
83.1066 223.0
83.3907 183.0
83.6748 185.0
83.9589 169.0
84.243 204.0
84.5271 182.0
84.8112 219.0
85.0953 175.0
85.3794 177.0
85.6635 180.0
85.9476 188.0
86.2316 166.0
86.5157 149.0
86.7998 172.0
87.0839 164.0
87.368 167.0
87.6521 185.0
87.9362 166.0
88.2203 153.0
88.5044 165.0
88.7885 150.0
89.0726 135.0
89.3567 130.0
89.6407 178.0
89.9248 155.0
89.9415 130.0