File: code/XRD_Analysis/External Sources/Alex_SAPO/20220730_SAPO-34_30_2_220725_calc650C.xy
4.98146 1454.0
5.24884 1357.0
5.51622 1262.0
5.7836 1240.0
6.05098 1210.0
6.31836 1096.0
6.58574 1118.0
6.85312 1053.0
7.1205 1084.0
7.38788 2269.0
7.65526 962.0
7.92264 924.0
8.19002 947.0
8.4574 839.0
8.72478 844.0
8.99216 862.0
9.25954 1112.0
9.52692 12401.0
9.7943 1058.0
10.0617 971.0
10.3291 915.0
10.5964 855.0
10.8638 798.0
11.1312 752.0
11.3986 800.0
11.666 773.0
11.9333 747.0
12.2007 746.0
12.4681 777.0
12.7355 932.0
13.0029 1657.0
13.2702 840.0
13.5376 892.0
13.805 657.0
14.0724 725.0
14.3398 651.0
14.6071 711.0
14.8745 778.0
15.1419 663.0
15.4093 694.0
15.6767 724.0
15.944 895.0
16.2114 1103.0
16.4788 789.0
16.7462 1058.0
17.0136 1283.0
17.2809 990.0
17.5483 988.0
17.8157 1027.0
18.0831 792.0
18.3505 810.0
18.6179 808.0
18.8852 812.0
19.1526 1325.0
19.42 872.0
19.6874 1569.0
19.9548 1120.0
20.2221 2135.0
20.4895 1902.0
20.7569 3880.0
21.0243 1813.0
21.2917 2813.0
21.559 2037.0
21.8264 1197.0
22.0938 1290.0
22.3612 2934.0
22.6286 1399.0
22.8959 1441.0
23.1633 1786.0
23.4307 1224.0
23.6981 1270.0
23.9655 1408.0
24.2328 1386.0
24.5002 1370.0
24.7676 1395.0
25.035 1461.0
25.3024 1195.0
25.5697 1261.0
25.8371 1833.0
26.1045 2347.0
26.3719 1366.0
26.6393 1307.0
26.9066 1259.0
27.174 1230.0
27.4414 1165.0
27.7088 1166.0
27.9762 1284.0
28.2435 1450.0
28.5109 1246.0
28.7783 1121.0
29.0457 1672.0
29.3131 1170.0
29.5804 1218.0
29.8478 1375.0
30.1152 1587.0
30.3826 1719.0
30.65 1986.0
30.9173 2230.0
31.1847 2766.0
31.4521 1818.0
31.7195 1396.0
31.9869 1347.0
32.2542 1257.0
32.5216 1263.0
32.789 1136.0
33.0564 955.0
33.3238 973.0
33.5911 978.0
33.8585 886.0
34.1259 806.0
34.3933 940.0
34.6607 883.0
34.928 821.0
35.1954 906.0
35.4628 1064.0
35.7302 925.0
35.9976 797.0
36.265 771.0
36.5323 712.0
36.7997 635.0
37.0671 708.0
37.3345 652.0
37.6019 606.0
37.8692 773.0
38.1366 591.0
38.404 573.0
38.6714 617.0
38.9388 596.0
39.2061 619.0
39.4735 569.0
39.7409 589.0
40.0083 576.0
40.2757 555.0
40.543 603.0
40.8104 579.0
41.0778 544.0
41.3452 542.0
41.6126 545.0
41.8799 573.0
42.1473 584.0
42.4147 573.0
42.6821 606.0
42.9495 603.0
43.2168 578.0
43.4842 646.0
43.7516 592.0
44.019 549.0
44.2864 557.0
44.5537 586.0
44.8211 549.0
45.0885 549.0
45.3559 502.0
45.6233 505.0
45.8906 536.0
46.158 533.0
46.4254 557.0
46.6928 516.0
46.9602 507.0
47.2275 514.0
47.4949 480.0
47.7623 572.0
48.0297 509.0
48.2971 569.0
48.5644 512.0
48.8318 541.0
49.0992 606.0
49.3666 646.0
49.634 518.0
49.9013 543.0
50.1687 544.0
50.4361 557.0
50.7035 532.0
50.9709 592.0
51.2382 527.0
51.5056 566.0
51.773 571.0
52.0404 481.0
52.3078 508.0
52.5751 498.0
52.8425 443.0
53.1099 509.0
53.3773 502.0
53.6447 524.0
53.9121 563.0
54.1794 540.0
54.4468 470.0
54.7142 492.0
54.9816 533.0
55.249 485.0
55.5163 565.0
55.7837 570.0
56.0511 520.0
56.3185 507.0
56.5859 510.0
56.8532 542.0
57.1206 487.0
57.388 470.0
57.6554 436.0
57.9228 423.0
58.1901 447.0
58.4575 479.0
58.7249 543.0
58.9923 476.0
59.2597 482.0
59.527 496.0
59.7944 505.0
60.0618 506.0
60.3292 473.0
60.5966 481.0
60.8639 460.0
61.1313 453.0
61.3987 482.0
61.6661 413.0
61.9335 462.0
62.2008 483.0
62.4682 462.0
62.7356 443.0
63.003 447.0
63.2704 471.0
63.5377 501.0
63.8051 461.0
64.0725 480.0
64.3399 391.0
64.6073 457.0
64.8746 438.0
65.142 456.0
65.4094 457.0
65.6768 481.0
65.9442 439.0
66.2115 476.0
66.4789 427.0
66.7463 464.0
67.0137 470.0
67.2811 501.0
67.5484 440.0
67.8158 373.0
68.0832 434.0
68.3506 399.0
68.618 398.0
68.8853 433.0
69.1527 414.0
69.4201 366.0
69.6875 385.0
69.9549 451.0
70.2222 431.0
70.4896 393.0
70.757 394.0
71.0244 387.0
71.2918 400.0
71.5592 375.0
71.8265 389.0
72.0939 368.0
72.3613 347.0
72.6287 366.0
72.8961 333.0
73.1634 371.0
73.4308 362.0
73.6982 342.0
73.9656 376.0
74.233 342.0
74.5003 348.0
74.7677 335.0
75.0351 358.0
75.3025 347.0
75.5699 352.0
75.8372 338.0
76.1046 366.0
76.372 345.0
76.6394 345.0
76.9068 340.0
77.1741 360.0
77.4415 335.0
77.7089 342.0
77.9763 323.0
78.2437 349.0
78.511 345.0
78.7784 306.0
79.0458 285.0
79.3132 347.0
79.5806 302.0
79.8479 328.0
80.1153 293.0
80.3827 310.0
80.6501 279.0
80.9175 282.0
81.1848 301.0
81.4522 295.0
81.7196 316.0
81.987 280.0
82.2544 231.0
82.5217 250.0
82.7891 279.0
83.0565 256.0
83.1066 237.0