File: code/XRD_Analysis/External Sources/Alex_SAPO/20220726_SAPO-34_30_2_220718_calc650C20h.xy
4.98146 1476.0
5.26555 1370.0
5.54964 1350.0
5.83373 1235.0
6.11782 1153.0
6.40191 1133.0
6.68601 1036.0
6.9701 1042.0
7.25419 1052.0
7.53828 1026.0
7.82237 929.0
8.10646 898.0
8.39055 949.0
8.67465 913.0
8.95874 902.0
9.24283 1062.0
9.52692 14334.0
9.81101 1099.0
10.0951 958.0
10.3792 846.0
10.6633 909.0
10.9474 855.0
11.2315 825.0
11.5156 805.0
11.7997 846.0
12.0837 762.0
12.3678 813.0
12.6519 822.0
12.936 3507.0
13.2201 916.0
13.5042 1024.0
13.7883 745.0
14.0724 854.0
14.3565 701.0
14.6406 637.0
14.9247 720.0
15.2088 720.0
15.4928 740.0
15.7769 768.0
16.061 2469.0
16.3451 870.0
16.6292 960.0
16.9133 1231.0
17.1974 1215.0
17.4815 1036.0
17.7656 1354.0
18.0497 971.0
18.3338 914.0
18.6179 955.0
18.9019 940.0
19.186 1441.0
19.4701 965.0
19.7542 1051.0
20.0383 1147.0
20.3224 1141.0
20.6065 2297.0
20.8906 2213.0
21.1747 1645.0
21.4588 1757.0
21.7429 1132.0
22.0269 1140.0
22.311 1134.0
22.5951 1140.0
22.8792 1257.0
23.1633 1863.0
23.4474 1326.0
23.7315 1370.0
24.0156 1503.0
24.2997 1509.0
24.5838 1583.0
24.8679 1637.0
25.152 1980.0
25.436 1541.0
25.7201 1584.0
26.0042 2472.0
26.2883 1816.0
26.5724 1524.0
26.8565 1487.0
27.1406 1369.0
27.4247 1231.0
27.7088 1371.0
27.9929 1411.0
28.277 1689.0
28.5611 1391.0
28.8451 1245.0
29.1292 1253.0
29.4133 1250.0
29.6974 1625.0
29.9815 1634.0
30.2656 1803.0
30.5497 2261.0
30.8338 3532.0
31.1179 3150.0
31.402 2569.0
31.6861 1732.0
31.9702 1606.0
32.2542 1401.0
32.5383 1331.0
32.8224 1132.0
33.1065 1120.0
33.3906 1002.0
33.6747 1188.0
33.9588 1050.0
34.2429 964.0
34.527 1026.0
34.8111 1090.0
35.0952 920.0
35.3793 873.0
35.6633 816.0
35.9474 851.0
36.2315 849.0
36.5156 777.0
36.7997 689.0
37.0838 743.0
37.3679 708.0
37.652 686.0
37.9361 606.0
38.2202 622.0
38.5043 661.0
38.7884 647.0
39.0724 684.0
39.3565 726.0
39.6406 727.0
39.9247 710.0
40.2088 735.0
40.4929 649.0
40.777 691.0
41.0611 638.0
41.3452 663.0
41.6293 675.0
41.9134 642.0
42.1975 660.0
42.4815 585.0
42.7656 668.0
43.0497 660.0
43.3338 699.0
43.6179 717.0
43.902 712.0
44.1861 649.0
44.4702 693.0
44.7543 650.0
45.0384 652.0
45.3225 641.0
45.6066 650.0
45.8906 644.0
46.1747 620.0
46.4588 605.0
46.7429 596.0
47.027 619.0
47.3111 579.0
47.5952 647.0
47.8793 656.0
48.1634 634.0
48.4475 616.0
48.7316 688.0
49.0156 731.0
49.2997 881.0
49.5838 695.0
49.8679 720.0
50.152 665.0
50.4361 656.0
50.7202 656.0
51.0043 709.0
51.2884 706.0
51.5725 648.0
51.8566 647.0
52.1407 618.0
52.4247 612.0
52.7088 596.0
52.9929 601.0
53.277 561.0
53.5611 637.0
53.8452 697.0
54.1293 590.0
54.4134 565.0
54.6975 647.0
54.9816 575.0
55.2657 599.0
55.5498 604.0
55.8338 611.0
56.1179 617.0
56.402 580.0
56.6861 664.0
56.9702 605.0
57.2543 550.0
57.5384 532.0
57.8225 508.0
58.1066 524.0
58.3907 553.0
58.6748 558.0
58.9589 536.0
59.2429 528.0
59.527 525.0
59.8111 549.0
60.0952 594.0
60.3793 564.0
60.6634 552.0
60.9475 488.0
61.2316 510.0
61.5157 631.0
61.7998 612.0
62.0839 567.0
62.368 587.0
62.652 536.0
62.9361 491.0
63.2202 539.0
63.5043 511.0
63.7884 545.0
64.0725 518.0
64.3566 522.0
64.6407 471.0
64.9248 497.0
65.2089 547.0
65.493 494.0
65.7771 521.0
66.0611 502.0
66.3452 487.0
66.6293 573.0
66.9134 622.0
67.1975 617.0
67.4816 511.0
67.7657 492.0
68.0498 508.0
68.3339 533.0
68.618 509.0
68.9021 488.0
69.1862 479.0
69.4702 512.0
69.7543 505.0
70.0384 506.0
70.3225 507.0
70.6066 534.0
70.8907 531.0
71.1748 501.0
71.4589 500.0
71.743 432.0
72.0271 479.0
72.3112 469.0
72.5952 469.0
72.8793 456.0
73.1634 446.0
73.4475 464.0
73.7316 446.0
74.0157 477.0
74.2998 416.0
74.5839 426.0
74.868 417.0
75.1521 430.0
75.4362 438.0
75.7203 430.0
76.0043 445.0
76.2884 418.0
76.5725 428.0
76.8566 362.0
77.1407 410.0
77.4248 381.0
77.7089 448.0
77.993 414.0
78.2771 381.0
78.5612 354.0
78.8453 414.0
79.1294 391.0
79.4134 403.0
79.6975 323.0
79.9816 329.0
80.2657 375.0
80.5498 368.0
80.8339 366.0
81.118 372.0
81.4021 335.0
81.6862 356.0
81.9703 326.0
82.2544 332.0
82.5385 324.0
82.8225 347.0
83.1066 309.0
83.3907 302.0
83.6748 289.0
83.9589 326.0
84.243 263.0
84.5271 283.0
84.8112 295.0
85.0953 321.0
85.3794 273.0
85.6635 316.0
85.9476 293.0
86.2316 274.0
86.5157 287.0
86.7998 286.0
87.0839 279.0
87.368 255.0
87.6521 280.0
87.9362 287.0
88.2203 280.0
88.5044 246.0
88.7885 246.0
89.0726 233.0
89.3567 280.0
89.6407 267.0
89.9248 238.0
89.9415 230.0