File: code/XRD_Analysis/External Sources/Alex_SAPO/20221013_SAPO-18_221010_1_calc550C.xy
4.98146 1563.0
5.26555 1413.0
5.54964 1325.0
5.83373 1251.0
6.11782 1198.0
6.40191 1178.0
6.68601 1085.0
6.9701 1027.0
7.25419 1038.0
7.53828 1002.0
7.82237 973.0
8.10646 990.0
8.39055 900.0
8.67465 948.0
8.95874 932.0
9.24283 1302.0
9.52692 7675.0
9.81101 1754.0
10.0951 1015.0
10.3792 1111.0
10.6633 1885.0
10.9474 979.0
11.2315 866.0
11.5156 777.0
11.7997 769.0
12.0837 719.0
12.3678 717.0
12.6519 850.0
12.936 2039.0
13.2201 792.0
13.5042 1070.0
13.7883 787.0
14.0724 783.0
14.3565 639.0
14.6406 668.0
14.9247 666.0
15.2088 679.0
15.4928 680.0
15.7769 807.0
16.061 1473.0
16.3451 1104.0
16.6292 903.0
16.9133 1837.0
17.1974 1914.0
17.4815 1411.0
17.7656 1008.0
18.0497 798.0
18.3338 770.0
18.6179 805.0
18.9019 922.0
19.186 1175.0
19.4701 944.0
19.7542 1262.0
20.0383 1204.0
20.3224 1309.0
20.6065 1887.0
20.8906 1398.0
21.1747 1382.0
21.4588 2181.0
21.7429 1254.0
22.0269 1041.0
22.311 1079.0
22.5951 1315.0
22.8792 1093.0
23.1633 1310.0
23.4474 1282.0
23.7315 1554.0
24.0156 2855.0
24.2997 1958.0
24.5838 1330.0
24.8679 1288.0
25.152 1312.0
25.436 1505.0
25.7201 1476.0
26.0042 2101.0
26.2883 1881.0
26.5724 1939.0
26.8565 1367.0
27.1406 1326.0
27.4247 1369.0
27.7088 1434.0
27.9929 1905.0
28.277 1876.0
28.5611 1372.0
28.8451 1326.0
29.1292 1305.0
29.4133 1399.0
29.6974 1594.0
29.9815 1699.0
30.2656 1776.0
30.5497 1827.0
30.8338 2048.0
31.1179 2731.0
31.402 2396.0
31.6861 1615.0
31.9702 1451.0
32.2542 1534.0
32.5383 1619.0
32.8224 1496.0
33.1065 1432.0
33.3906 1122.0
33.6747 1032.0
33.9588 885.0
34.2429 899.0
34.527 899.0
34.8111 825.0
35.0952 869.0
35.3793 788.0
35.6633 747.0
35.9474 747.0
36.2315 740.0
36.5156 803.0
36.7997 703.0
37.0838 665.0
37.3679 669.0
37.652 609.0
37.9361 602.0
38.2202 615.0
38.5043 601.0
38.7884 651.0
39.0724 625.0
39.3565 673.0
39.6406 639.0
39.9247 635.0
40.2088 627.0
40.4929 595.0
40.777 560.0
41.0611 637.0
41.3452 653.0
41.6293 625.0
41.9134 601.0
42.1975 649.0
42.4815 541.0
42.7656 616.0
43.0497 633.0
43.3338 665.0
43.6179 666.0
43.902 606.0
44.1861 602.0
44.4702 595.0
44.7543 517.0
45.0384 632.0
45.3225 602.0
45.6066 569.0
45.8906 570.0
46.1747 575.0
46.4588 541.0
46.7429 506.0
47.027 525.0
47.3111 549.0
47.5952 555.0
47.8793 537.0
48.1634 536.0
48.4475 524.0
48.7316 521.0
49.0156 623.0
49.2997 643.0
49.5838 657.0
49.8679 648.0
50.152 599.0
50.4361 581.0
50.7202 628.0
51.0043 606.0
51.2884 565.0
51.5725 589.0
51.8566 576.0
52.1407 549.0
52.4247 517.0
52.7088 552.0
52.9929 512.0
53.277 538.0
53.5611 535.0
53.8452 523.0
54.1293 496.0
54.4134 490.0
54.6975 508.0
54.9816 528.0
55.2657 578.0
55.5498 576.0
55.8338 585.0
56.1179 599.0
56.402 526.0
56.6861 555.0
56.9702 521.0
57.2543 523.0
57.5384 477.0
57.8225 464.0
58.1066 490.0
58.3907 490.0
58.6748 454.0
58.9589 475.0
59.2429 429.0
59.527 532.0
59.8111 502.0
60.0952 466.0
60.3793 425.0
60.6634 507.0
60.9475 486.0
61.2316 462.0
61.5157 490.0
61.7998 489.0
62.0839 445.0
62.368 450.0
62.652 482.0
62.9361 460.0
63.2202 439.0
63.5043 441.0
63.7884 464.0
64.0725 411.0
64.3566 488.0
64.6407 462.0
64.9248 448.0
65.2089 402.0
65.493 460.0
65.7771 448.0
66.0611 435.0
66.3452 423.0
66.6293 465.0
66.9134 470.0
67.1975 485.0
67.4816 481.0
67.7657 402.0
68.0498 465.0
68.3339 439.0
68.618 439.0
68.9021 427.0
69.1862 411.0
69.4702 433.0
69.7543 420.0
70.0384 391.0
70.3225 439.0
70.6066 456.0
70.8907 411.0
71.1748 435.0
71.4589 397.0
71.743 396.0
72.0271 423.0
72.3112 444.0
72.5952 383.0
72.8793 398.0
73.1634 392.0
73.4475 400.0
73.7316 358.0
74.0157 367.0
74.2998 362.0
74.5839 356.0
74.868 378.0
75.1521 350.0
75.4362 375.0
75.7203 385.0
76.0043 407.0
76.2884 376.0
76.5725 342.0
76.8566 330.0
77.1407 344.0
77.4248 348.0
77.7089 339.0
77.993 358.0
78.2771 326.0
78.5612 315.0
78.8453 323.0
79.1294 313.0
79.4134 297.0
79.6975 317.0
79.9816 295.0
80.2657 290.0
80.5498 305.0
80.8339 308.0
81.118 263.0
81.4021 311.0
81.6862 298.0
81.9703 301.0
82.2544 279.0
82.5385 278.0
82.8225 275.0
83.1066 261.0
83.3907 261.0
83.6748 252.0
83.9589 229.0
84.243 273.0
84.5271 242.0
84.8112 239.0
85.0953 292.0
85.3794 239.0
85.6635 263.0
85.9476 250.0
86.2316 240.0
86.5157 241.0
86.7998 224.0
87.0839 230.0
87.368 237.0
87.6521 207.0
87.9362 204.0
88.2203 230.0
88.5044 273.0
88.7885 217.0
89.0726 213.0
89.3567 235.0
89.6407 204.0
89.9248 211.0
89.9415 235.0