File: code/XRD_Analysis/External Sources/Alex_SAPO/20220704_SAPO-34_CASALE.xy
4.98146 1602.0
5.26555 1528.0
5.54964 1437.0
5.83373 1359.0
6.11782 1231.0
6.40191 1213.0
6.68601 1102.0
6.9701 1107.0
7.25419 1114.0
7.53828 1026.0
7.82237 1041.0
8.10646 1006.0
8.39055 977.0
8.67465 944.0
8.95874 927.0
9.24283 1009.0
9.52692 5443.0
9.81101 924.0
10.0951 867.0
10.3792 883.0
10.6633 882.0
10.9474 818.0
11.2315 790.0
11.5156 800.0
11.7997 784.0
12.0837 744.0
12.3678 771.0
12.6519 814.0
12.936 2002.0
13.2201 806.0
13.5042 760.0
13.7883 748.0
14.0724 828.0
14.3565 769.0
14.6406 754.0
14.9247 808.0
15.2088 777.0
15.4928 817.0
15.7769 847.0
16.061 1716.0
16.3451 880.0
16.6292 917.0
16.9133 964.0
17.1974 987.0
17.4815 1062.0
17.7656 1600.0
18.0497 1240.0
18.3338 1224.0
18.6179 1209.0
18.9019 1288.0
19.186 1453.0
19.4701 1446.0
19.7542 1597.0
20.0383 1755.0
20.3224 1869.0
20.6065 2670.0
20.8906 2299.0
21.1747 1974.0
21.4588 1997.0
21.7429 1945.0
22.0269 2162.0
22.311 2031.0
22.5951 2068.0
22.8792 2098.0
23.1633 2510.0
23.4474 2034.0
23.7315 1874.0
24.0156 1918.0
24.2997 1821.0
24.5838 1737.0
24.8679 2083.0
25.152 1847.0
25.436 1708.0
25.7201 1660.0
26.0042 2193.0
26.2883 1588.0
26.5724 1465.0
26.8565 1435.0
27.1406 1458.0
27.4247 1359.0
27.7088 1456.0
27.9929 1371.0
28.277 1496.0
28.5611 1334.0
28.8451 1255.0
29.1292 1203.0
29.4133 1269.0
29.6974 1238.0
29.9815 1224.0
30.2656 1270.0
30.5497 1481.0
30.8338 3064.0
31.1179 1914.0
31.402 1333.0
31.6861 1268.0
31.9702 1072.0
32.2542 992.0
32.5383 1044.0
32.8224 1017.0
33.1065 964.0
33.3906 955.0
33.6747 1002.0
33.9588 867.0
34.2429 865.0
34.527 954.0
34.8111 1116.0
35.0952 916.0
35.3793 876.0
35.6633 802.0
35.9474 852.0
36.2315 891.0
36.5156 785.0
36.7997 786.0
37.0838 768.0
37.3679 722.0
37.652 774.0
37.9361 723.0
38.2202 698.0
38.5043 686.0
38.7884 737.0
39.0724 716.0
39.3565 734.0
39.6406 692.0
39.9247 712.0
40.2088 653.0
40.4929 637.0
40.777 633.0
41.0611 635.0
41.3452 651.0
41.6293 635.0
41.9134 613.0
42.1975 612.0
42.4815 660.0
42.7656 632.0
43.0497 670.0
43.3338 649.0
43.6179 771.0
43.902 653.0
44.1861 713.0
44.4702 663.0
44.7543 649.0
45.0384 665.0
45.3225 660.0
45.6066 696.0
45.8906 734.0
46.1747 643.0
46.4588 614.0
46.7429 634.0
47.027 678.0
47.3111 645.0
47.5952 629.0
47.8793 647.0
48.1634 607.0
48.4475 605.0
48.7316 611.0
49.0156 680.0
49.2997 685.0
49.5838 618.0
49.8679 560.0
50.152 613.0
50.4361 642.0
50.7202 647.0
51.0043 720.0
51.2884 605.0
51.5725 633.0
51.8566 575.0
52.1407 621.0
52.4247 552.0
52.7088 570.0
52.9929 582.0
53.277 596.0
53.5611 699.0
53.8452 615.0
54.1293 550.0
54.4134 580.0
54.6975 661.0
54.9816 553.0
55.2657 597.0
55.5498 575.0
55.8338 572.0
56.1179 568.0
56.402 597.0
56.6861 602.0
56.9702 551.0
57.2543 583.0
57.5384 535.0
57.8225 551.0
58.1066 513.0
58.3907 543.0
58.6748 553.0
58.9589 526.0
59.2429 553.0
59.527 536.0
59.8111 613.0
60.0952 561.0
60.3793 549.0
60.6634 551.0
60.9475 551.0
61.2316 544.0
61.5157 604.0
61.7998 589.0
62.0839 589.0
62.368 518.0
62.652 532.0
62.9361 598.0
63.2202 588.0
63.5043 576.0
63.7884 558.0
64.0725 578.0
64.3566 580.0
64.6407 598.0
64.9248 571.0
65.2089 554.0
65.493 607.0
65.7771 559.0
66.0611 639.0
66.3452 625.0
66.6293 605.0
66.9134 613.0
67.1975 625.0
67.4816 612.0
67.7657 586.0
68.0498 591.0
68.3339 587.0
68.618 529.0
68.9021 561.0
69.1862 532.0
69.4702 519.0
69.7543 536.0
70.0384 542.0
70.3225 510.0
70.6066 523.0
70.8907 506.0
71.1748 555.0
71.4589 490.0
71.743 469.0
72.0271 518.0
72.3112 506.0
72.5952 477.0
72.8793 513.0
73.1634 490.0
73.4475 486.0
73.7316 494.0
74.0157 490.0
74.2998 510.0
74.5839 462.0
74.868 497.0
75.1521 475.0
75.4362 482.0
75.7203 485.0
76.0043 501.0
76.2884 469.0
76.5725 482.0
76.8566 442.0
77.1407 461.0
77.4248 434.0
77.7089 436.0
77.993 488.0
78.2771 436.0
78.5612 493.0
78.8453 466.0
79.1294 436.0
79.4134 428.0
79.6975 465.0
79.9816 462.0
80.2657 407.0
80.5498 425.0
80.8339 425.0
81.118 407.0
81.4021 372.0
81.6862 408.0
81.9703 385.0
82.2544 376.0
82.5385 381.0
82.8225 381.0
83.1066 380.0
83.3907 347.0
83.6748 347.0
83.9589 353.0
84.243 348.0
84.5271 341.0
84.8112 288.0
85.0953 366.0
85.3794 348.0
85.6635 318.0
85.9476 319.0
86.2316 303.0
86.5157 308.0
86.7998 315.0
87.0839 307.0
87.368 283.0
87.6521 267.0
87.9362 274.0
88.2203 315.0
88.5044 301.0
88.7885 290.0
89.0726 304.0
89.3567 307.0
89.6407 300.0
89.9248 276.0
89.9415 274.0