File: code/XRD_Analysis/External Sources/Alex_SAPO/20220523_SAPO-34_30_220511_calc12h650C.xy
4.98146 803.0
5.26555 767.0
5.54964 720.0
5.83373 735.0
6.11782 688.0
6.40191 672.0
6.68601 604.0
6.9701 610.0
7.25419 618.0
7.53828 620.0
7.82237 563.0
8.10646 506.0
8.39055 497.0
8.67465 528.0
8.95874 564.0
9.24283 1104.0
9.52692 11665.0
9.81101 1252.0
10.0951 795.0
10.3792 716.0
10.6633 699.0
10.9474 625.0
11.2315 549.0
11.5156 503.0
11.7997 522.0
12.0837 523.0
12.3678 523.0
12.6519 663.0
12.936 2493.0
13.2201 635.0
13.5042 609.0
13.7883 467.0
14.0724 533.0
14.3565 467.0
14.6406 479.0
14.9247 438.0
15.2088 481.0
15.4928 584.0
15.7769 606.0
16.061 1848.0
16.3451 658.0
16.6292 672.0
16.9133 980.0
17.1974 846.0
17.4815 736.0
17.7656 990.0
18.0497 652.0
18.3338 598.0
18.6179 556.0
18.9019 660.0
19.186 887.0
19.4701 715.0
19.7542 692.0
20.0383 837.0
20.3224 946.0
20.6065 2469.0
20.8906 1222.0
21.1747 1042.0
21.4588 1058.0
21.7429 637.0
22.0269 696.0
22.311 668.0
22.5951 793.0
22.8792 760.0
23.1633 1084.0
23.4474 763.0
23.7315 818.0
24.0156 953.0
24.2997 949.0
24.5838 787.0
24.8679 1020.0
25.152 945.0
25.436 844.0
25.7201 849.0
26.0042 1485.0
26.2883 1035.0
26.5724 907.0
26.8565 755.0
27.1406 680.0
27.4247 684.0
27.7088 846.0
27.9929 778.0
28.277 801.0
28.5611 679.0
28.8451 689.0
29.1292 744.0
29.4133 691.0
29.6974 781.0
29.9815 864.0
30.2656 942.0
30.5497 1196.0
30.8338 1637.0
31.1179 1687.0
31.402 1089.0
31.6861 937.0
31.9702 786.0
32.2542 729.0
32.5383 775.0
32.8224 682.0
33.1065 607.0
33.3906 550.0
33.6747 570.0
33.9588 446.0
34.2429 501.0
34.527 479.0
34.8111 525.0
35.0952 453.0
35.3793 434.0
35.6633 412.0
35.9474 398.0
36.2315 417.0
36.5156 351.0
36.7997 329.0
37.0838 300.0
37.3679 307.0
37.652 300.0
37.9361 320.0
38.2202 322.0
38.5043 339.0
38.7884 313.0
39.0724 303.0
39.3565 292.0
39.6406 325.0
39.9247 303.0
40.2088 290.0
40.4929 298.0
40.777 298.0
41.0611 299.0
41.3452 294.0
41.6293 313.0
41.9134 266.0
42.1975 286.0
42.4815 310.0
42.7656 277.0
43.0497 316.0
43.3338 339.0
43.6179 331.0
43.902 269.0
44.1861 251.0
44.4702 297.0
44.7543 280.0
45.0384 274.0
45.3225 270.0
45.6066 255.0
45.8906 268.0
46.1747 241.0
46.4588 266.0
46.7429 283.0
47.027 250.0
47.3111 294.0
47.5952 241.0
47.8793 243.0
48.1634 308.0
48.4475 273.0
48.7316 287.0
49.0156 332.0
49.2997 335.0
49.5838 313.0
49.8679 302.0
50.152 350.0
50.4361 291.0
50.7202 345.0
51.0043 320.0
51.2884 278.0
51.5725 286.0
51.8566 308.0
52.1407 272.0
52.4247 273.0
52.7088 271.0
52.9929 259.0
53.277 272.0
53.5611 286.0
53.8452 261.0
54.1293 277.0
54.4134 253.0
54.6975 279.0
54.9816 243.0
55.2657 283.0
55.5498 269.0
55.8338 267.0
56.1179 248.0
56.402 273.0
56.6861 238.0
56.9702 271.0
57.2543 226.0
57.5384 267.0
57.8225 253.0
58.1066 254.0
58.3907 250.0
58.6748 235.0
58.9589 231.0
59.2429 223.0
59.527 269.0
59.8111 271.0
60.0952 239.0
60.3793 248.0
60.6634 271.0
60.9475 222.0
61.2316 233.0
61.5157 228.0
61.7998 251.0
62.0839 254.0
62.368 228.0
62.652 223.0
62.9361 246.0
63.2202 227.0
63.5043 248.0
63.7884 212.0
64.0725 228.0
64.3566 223.0
64.6407 220.0
64.9248 240.0
65.2089 255.0
65.493 220.0
65.7771 194.0
66.0611 199.0
66.3452 237.0
66.6293 240.0
66.9134 216.0
67.1975 219.0
67.4816 184.0
67.7657 221.0
68.0498 205.0
68.3339 204.0
68.618 213.0
68.9021 236.0
69.1862 203.0
69.4702 192.0
69.7543 220.0
70.0384 241.0
70.3225 210.0
70.6066 219.0
70.8907 189.0
71.1748 219.0
71.4589 195.0
71.743 199.0
72.0271 222.0
72.3112 195.0
72.5952 167.0
72.8793 192.0
73.1634 178.0
73.4475 189.0
73.7316 191.0
74.0157 182.0
74.2998 175.0
74.5839 194.0
74.868 164.0
75.1521 185.0
75.4362 162.0
75.7203 173.0
76.0043 176.0
76.2884 175.0
76.5725 184.0
76.8566 159.0
77.1407 172.0
77.4248 167.0
77.7089 169.0
77.993 189.0
78.2771 166.0
78.5612 162.0
78.8453 180.0
79.1294 148.0
79.4134 157.0
79.6975 186.0
79.9816 130.0
80.2657 166.0
80.5498 152.0
80.8339 132.0
81.118 166.0
81.4021 134.0
81.6862 132.0
81.9703 145.0
82.2544 141.0
82.5385 130.0
82.8225 141.0
83.1066 123.0
83.3907 145.0
83.6748 141.0
83.9589 135.0
84.243 131.0
84.5271 129.0
84.8112 137.0
85.0953 110.0
85.3794 132.0
85.6635 121.0
85.9476 139.0
86.2316 118.0
86.5157 113.0
86.7998 119.0
87.0839 112.0
87.368 115.0
87.6521 111.0
87.9362 111.0
88.2203 110.0
88.5044 121.0
88.7885 138.0
89.0726 113.0
89.3567 110.0
89.6407 110.0
89.9248 91.0
89.9415 99.0