File: code/XRD_Analysis/External Sources/Alex_SAPO/20220523_SAPO-34_70_220511_calc12h650C.xy
4.98146 803.0
5.26555 853.0
5.54964 720.0
5.83373 747.0
6.11782 680.0
6.40191 692.0
6.68601 617.0
6.9701 601.0
7.25419 584.0
7.53828 550.0
7.82237 528.0
8.10646 560.0
8.39055 521.0
8.67465 493.0
8.95874 503.0
9.24283 696.0
9.52692 13255.0
9.81101 720.0
10.0951 653.0
10.3792 604.0
10.6633 536.0
10.9474 561.0
11.2315 561.0
11.5156 522.0
11.7997 525.0
12.0837 517.0
12.3678 536.0
12.6519 612.0
12.936 3391.0
13.2201 637.0
13.5042 669.0
13.7883 456.0
14.0724 536.0
14.3565 445.0
14.6406 479.0
14.9247 432.0
15.2088 470.0
15.4928 497.0
15.7769 521.0
16.061 2415.0
16.3451 603.0
16.6292 691.0
16.9133 869.0
17.1974 810.0
17.4815 708.0
17.7656 1111.0
18.0497 686.0
18.3338 587.0
18.6179 599.0
18.9019 602.0
19.186 946.0
19.4701 617.0
19.7542 610.0
20.0383 637.0
20.3224 757.0
20.6065 2242.0
20.8906 1181.0
21.1747 964.0
21.4588 938.0
21.7429 645.0
22.0269 728.0
22.311 618.0
22.5951 670.0
22.8792 770.0
23.1633 1236.0
23.4474 819.0
23.7315 816.0
24.0156 883.0
24.2997 888.0
24.5838 887.0
24.8679 1118.0
25.152 1085.0
25.436 920.0
25.7201 901.0
26.0042 1700.0
26.2883 1012.0
26.5724 834.0
26.8565 812.0
27.1406 722.0
27.4247 720.0
27.7088 823.0
27.9929 799.0
28.277 964.0
28.5611 754.0
28.8451 748.0
29.1292 717.0
29.4133 752.0
29.6974 978.0
29.9815 940.0
30.2656 1125.0
30.5497 1344.0
30.8338 2230.0
31.1179 1973.0
31.402 1344.0
31.6861 979.0
31.9702 891.0
32.2542 806.0
32.5383 822.0
32.8224 645.0
33.1065 615.0
33.3906 628.0
33.6747 606.0
33.9588 568.0
34.2429 583.0
34.527 553.0
34.8111 652.0
35.0952 526.0
35.3793 474.0
35.6633 445.0
35.9474 490.0
36.2315 462.0
36.5156 395.0
36.7997 402.0
37.0838 375.0
37.3679 360.0
37.652 369.0
37.9361 351.0
38.2202 364.0
38.5043 344.0
38.7884 372.0
39.0724 379.0
39.3565 378.0
39.6406 399.0
39.9247 397.0
40.2088 377.0
40.4929 348.0
40.777 396.0
41.0611 349.0
41.3452 381.0
41.6293 378.0
41.9134 342.0
42.1975 370.0
42.4815 365.0
42.7656 381.0
43.0497 407.0
43.3338 409.0
43.6179 384.0
43.902 373.0
44.1861 366.0
44.4702 339.0
44.7543 351.0
45.0384 383.0
45.3225 381.0
45.6066 340.0
45.8906 329.0
46.1747 304.0
46.4588 330.0
46.7429 360.0
47.027 338.0
47.3111 338.0
47.5952 336.0
47.8793 345.0
48.1634 338.0
48.4475 361.0
48.7316 322.0
49.0156 402.0
49.2997 433.0
49.5838 384.0
49.8679 351.0
50.152 353.0
50.4361 353.0
50.7202 380.0
51.0043 447.0
51.2884 354.0
51.5725 320.0
51.8566 331.0
52.1407 371.0
52.4247 323.0
52.7088 319.0
52.9929 339.0
53.277 294.0
53.5611 366.0
53.8452 349.0
54.1293 323.0
54.4134 313.0
54.6975 317.0
54.9816 347.0
55.2657 348.0
55.5498 319.0
55.8338 332.0
56.1179 336.0
56.402 334.0
56.6861 356.0
56.9702 302.0
57.2543 326.0
57.5384 276.0
57.8225 313.0
58.1066 306.0
58.3907 305.0
58.6748 344.0
58.9589 278.0
59.2429 282.0
59.527 279.0
59.8111 289.0
60.0952 288.0
60.3793 280.0
60.6634 299.0
60.9475 305.0
61.2316 259.0
61.5157 300.0
61.7998 302.0
62.0839 285.0
62.368 252.0
62.652 305.0
62.9361 269.0
63.2202 267.0
63.5043 284.0
63.7884 242.0
64.0725 269.0
64.3566 251.0
64.6407 247.0
64.9248 264.0
65.2089 278.0
65.493 246.0
65.7771 322.0
66.0611 286.0
66.3452 289.0
66.6293 245.0
66.9134 320.0
67.1975 308.0
67.4816 255.0
67.7657 252.0
68.0498 254.0
68.3339 262.0
68.618 223.0
68.9021 233.0
69.1862 253.0
69.4702 250.0
69.7543 252.0
70.0384 266.0
70.3225 238.0
70.6066 254.0
70.8907 257.0
71.1748 215.0
71.4589 276.0
71.743 260.0
72.0271 241.0
72.3112 245.0
72.5952 230.0
72.8793 230.0
73.1634 229.0
73.4475 248.0
73.7316 232.0
74.0157 242.0
74.2998 212.0
74.5839 244.0
74.868 232.0
75.1521 243.0
75.4362 214.0
75.7203 222.0
76.0043 226.0
76.2884 216.0
76.5725 224.0
76.8566 167.0
77.1407 220.0
77.4248 223.0
77.7089 201.0
77.993 201.0
78.2771 205.0
78.5612 193.0
78.8453 174.0
79.1294 201.0
79.4134 164.0
79.6975 175.0
79.9816 179.0
80.2657 186.0
80.5498 200.0
80.8339 207.0
81.118 198.0
81.4021 185.0
81.6862 174.0
81.9703 182.0
82.2544 164.0
82.5385 153.0
82.8225 167.0
83.1066 144.0
83.3907 175.0
83.6748 163.0
83.9589 163.0
84.243 167.0
84.5271 133.0
84.8112 178.0
85.0953 157.0
85.3794 161.0
85.6635 173.0
85.9476 148.0
86.2316 145.0
86.5157 155.0
86.7998 146.0
87.0839 131.0
87.368 120.0
87.6521 135.0
87.9362 127.0
88.2203 133.0
88.5044 145.0
88.7885 123.0
89.0726 151.0
89.3567 132.0
89.6407 126.0
89.9248 134.0
89.9415 152.0