File: code/XRD_Analysis/External Sources/Alex_SAPO/20220623_La-Ni 2-1_1000C 6h air_5C ramp_20210523.xy
4.98146 1473.0
5.26555 1328.0
5.54964 1260.0
5.83373 1178.0
6.11782 1178.0
6.40191 1086.0
6.68601 1063.0
6.9701 1009.0
7.25419 1101.0
7.53828 966.0
7.82237 846.0
8.10646 870.0
8.39055 895.0
8.67465 872.0
8.95874 895.0
9.24283 955.0
9.52692 11485.0
9.81101 1063.0
10.0951 955.0
10.3792 911.0
10.6633 870.0
10.9474 750.0
11.2315 756.0
11.5156 800.0
11.7997 728.0
12.0837 696.0
12.3678 784.0
12.6519 821.0
12.936 2962.0
13.2201 792.0
13.5042 960.0
13.7883 656.0
14.0724 758.0
14.3565 614.0
14.6406 648.0
14.9247 688.0
15.2088 664.0
15.4928 669.0
15.7769 711.0
16.061 2028.0
16.3451 810.0
16.6292 897.0
16.9133 1291.0
17.1974 1179.0
17.4815 913.0
17.7656 1053.0
18.0497 825.0
18.3338 823.0
18.6179 797.0
18.9019 826.0
19.186 1291.0
19.4701 842.0
19.7542 1399.0
20.0383 992.0
20.3224 1167.0
20.6065 2086.0
20.8906 1690.0
21.1747 2965.0
21.4588 1824.0
21.7429 976.0
22.0269 1083.0
22.311 2108.0
22.5951 1133.0
22.8792 1069.0
23.1633 1596.0
23.4474 1161.0
23.7315 1243.0
24.0156 1482.0
24.2997 1388.0
24.5838 1441.0
24.8679 1624.0
25.152 1552.0
25.436 1344.0
25.7201 1518.0
26.0042 2391.0
26.2883 1667.0
26.5724 1470.0
26.8565 1334.0
27.1406 1315.0
27.4247 1211.0
27.7088 1414.0
27.9929 1428.0
28.277 1572.0
28.5611 1394.0
28.8451 1286.0
29.1292 1636.0
29.4133 1257.0
29.6974 1618.0
29.9815 2119.0
30.2656 1806.0
30.5497 2259.0
30.8338 2887.0
31.1179 3006.0
31.402 2341.0
31.6861 1668.0
31.9702 1640.0
32.2542 1371.0
32.5383 1415.0
32.8224 1287.0
33.1065 1121.0
33.3906 1132.0
33.6747 1309.0
33.9588 1037.0
34.2429 1004.0
34.527 1287.0
34.8111 1016.0
35.0952 942.0
35.3793 947.0
35.6633 841.0
35.9474 909.0
36.2315 872.0
36.5156 800.0
36.7997 720.0
37.0838 727.0
37.3679 657.0
37.652 675.0
37.9361 851.0
38.2202 643.0
38.5043 613.0
38.7884 684.0
39.0724 626.0
39.3565 724.0
39.6406 670.0
39.9247 712.0
40.2088 678.0
40.4929 642.0
40.777 683.0
41.0611 646.0
41.3452 667.0
41.6293 667.0
41.9134 637.0
42.1975 675.0
42.4815 605.0
42.7656 645.0
43.0497 731.0
43.3338 736.0
43.6179 745.0
43.902 723.0
44.1861 677.0
44.4702 657.0
44.7543 675.0
45.0384 705.0
45.3225 623.0
45.6066 672.0
45.8906 580.0
46.1747 642.0
46.4588 603.0
46.7429 560.0
47.027 623.0
47.3111 631.0
47.5952 703.0
47.8793 642.0
48.1634 667.0
48.4475 632.0
48.7316 657.0
49.0156 698.0
49.2997 825.0
49.5838 744.0
49.8679 708.0
50.152 636.0
50.4361 675.0
50.7202 641.0
51.0043 757.0
51.2884 666.0
51.5725 678.0
51.8566 637.0
52.1407 712.0
52.4247 609.0
52.7088 643.0
52.9929 663.0
53.277 691.0
53.5611 634.0
53.8452 686.0
54.1293 601.0
54.4134 612.0
54.6975 600.0
54.9816 639.0
55.2657 609.0
55.5498 642.0
55.8338 604.0
56.1179 633.0
56.402 643.0
56.6861 673.0
56.9702 656.0
57.2543 552.0
57.5384 589.0
57.8225 555.0
58.1066 568.0
58.3907 579.0
58.6748 607.0
58.9589 603.0
59.2429 558.0
59.527 589.0
59.8111 595.0
60.0952 604.0
60.3793 508.0
60.6634 563.0
60.9475 571.0
61.2316 589.0
61.5157 558.0
61.7998 538.0
62.0839 543.0
62.368 531.0
62.652 537.0
62.9361 520.0
63.2202 500.0
63.5043 552.0
63.7884 544.0
64.0725 494.0
64.3566 560.0
64.6407 532.0
64.9248 572.0
65.2089 505.0
65.493 559.0
65.7771 557.0
66.0611 450.0
66.3452 532.0
66.6293 581.0
66.9134 576.0
67.1975 602.0
67.4816 566.0
67.7657 527.0
68.0498 541.0
68.3339 536.0
68.618 503.0
68.9021 492.0
69.1862 510.0
69.4702 521.0
69.7543 563.0
70.0384 508.0
70.3225 537.0
70.6066 529.0
70.8907 527.0
71.1748 536.0
71.4589 532.0
71.743 540.0
72.0271 501.0
72.3112 509.0
72.5952 544.0
72.8793 496.0
73.1634 462.0
73.4475 455.0
73.7316 467.0
74.0157 461.0
74.2998 460.0
74.5839 475.0
74.868 481.0
75.1521 462.0
75.4362 441.0
75.7203 472.0
76.0043 435.0
76.2884 435.0
76.5725 459.0
76.8566 404.0
77.1407 417.0
77.4248 419.0
77.7089 453.0
77.993 448.0
78.2771 439.0
78.5612 403.0
78.8453 418.0
79.1294 460.0
79.4134 402.0
79.6975 360.0
79.9816 406.0
80.2657 352.0
80.5498 356.0
80.8339 388.0
81.118 398.0
81.4021 368.0
81.6862 364.0
81.9703 375.0
82.2544 318.0
82.5385 353.0
82.8225 349.0
83.1066 354.0
83.3907 301.0
83.6748 331.0
83.9589 310.0
84.243 308.0
84.5271 334.0
84.8112 322.0
85.0953 306.0
85.3794 285.0
85.6635 302.0
85.9476 283.0
86.2316 279.0
86.5157 300.0
86.7998 294.0
87.0839 275.0
87.368 257.0
87.6521 279.0
87.9362 256.0
88.2203 285.0
88.5044 266.0
88.7885 271.0
89.0726 256.0
89.3567 285.0
89.6407 219.0
89.9248 269.0
89.9415 274.0