File: code/XRD_Analysis/External Sources/Alex_SAPO/20220704_SAPO-34_80_220627_calc650C20h.xy
4.98146 1425.0
5.26555 1347.0
5.54964 1302.0
5.83373 1239.0
6.11782 1189.0
6.40191 1093.0
6.68601 1033.0
6.9701 1031.0
7.25419 959.0
7.53828 991.0
7.82237 914.0
8.10646 899.0
8.39055 876.0
8.67465 923.0
8.95874 809.0
9.24283 892.0
9.52692 7821.0
9.81101 1059.0
10.0951 841.0
10.3792 777.0
10.6633 808.0
10.9474 757.0
11.2315 775.0
11.5156 746.0
11.7997 703.0
12.0837 738.0
12.3678 722.0
12.6519 805.0
12.936 1963.0
13.2201 886.0
13.5042 884.0
13.7883 662.0
14.0724 813.0
14.3565 665.0
14.6406 636.0
14.9247 599.0
15.2088 641.0
15.4928 641.0
15.7769 679.0
16.061 1081.0
16.3451 826.0
16.6292 789.0
16.9133 878.0
17.1974 931.0
17.4815 856.0
17.7656 1020.0
18.0497 1020.0
18.3338 773.0
18.6179 738.0
18.9019 748.0
19.186 1373.0
19.4701 788.0
19.7542 783.0
20.0383 849.0
20.3224 996.0
20.6065 1245.0
20.8906 3609.0
21.1747 1290.0
21.4588 1336.0
21.7429 956.0
22.0269 880.0
22.311 990.0
22.5951 967.0
22.8792 1027.0
23.1633 1196.0
23.4474 1178.0
23.7315 1125.0
24.0156 1126.0
24.2997 1121.0
24.5838 1247.0
24.8679 1312.0
25.152 2034.0
25.436 1372.0
25.7201 1351.0
26.0042 1482.0
26.2883 2072.0
26.5724 1272.0
26.8565 1214.0
27.1406 1201.0
27.4247 1150.0
27.7088 1126.0
27.9929 1428.0
28.277 1432.0
28.5611 1322.0
28.8451 1222.0
29.1292 1163.0
29.4133 1228.0
29.6974 1324.0
29.9815 1407.0
30.2656 1500.0
30.5497 1898.0
30.8338 2697.0
31.1179 2939.0
31.402 2940.0
31.6861 1596.0
31.9702 1642.0
32.2542 1285.0
32.5383 1183.0
32.8224 1141.0
33.1065 1018.0
33.3906 1002.0
33.6747 1058.0
33.9588 996.0
34.2429 894.0
34.527 865.0
34.8111 1050.0
35.0952 871.0
35.3793 879.0
35.6633 743.0
35.9474 778.0
36.2315 845.0
36.5156 777.0
36.7997 677.0
37.0838 719.0
37.3679 661.0
37.652 622.0
37.9361 633.0
38.2202 614.0
38.5043 635.0
38.7884 662.0
39.0724 628.0
39.3565 656.0
39.6406 680.0
39.9247 705.0
40.2088 699.0
40.4929 620.0
40.777 631.0
41.0611 603.0
41.3452 674.0
41.6293 600.0
41.9134 643.0
42.1975 639.0
42.4815 628.0
42.7656 636.0
43.0497 648.0
43.3338 699.0
43.6179 727.0
43.902 732.0
44.1861 628.0
44.4702 670.0
44.7543 611.0
45.0384 571.0
45.3225 575.0
45.6066 560.0
45.8906 566.0
46.1747 618.0
46.4588 617.0
46.7429 582.0
47.027 604.0
47.3111 612.0
47.5952 618.0
47.8793 576.0
48.1634 667.0
48.4475 598.0
48.7316 619.0
49.0156 619.0
49.2997 869.0
49.5838 779.0
49.8679 675.0
50.152 619.0
50.4361 645.0
50.7202 707.0
51.0043 643.0
51.2884 763.0
51.5725 649.0
51.8566 580.0
52.1407 605.0
52.4247 605.0
52.7088 565.0
52.9929 548.0
53.277 583.0
53.5611 604.0
53.8452 633.0
54.1293 596.0
54.4134 580.0
54.6975 623.0
54.9816 596.0
55.2657 563.0
55.5498 599.0
55.8338 631.0
56.1179 548.0
56.402 598.0
56.6861 650.0
56.9702 623.0
57.2543 603.0
57.5384 534.0
57.8225 563.0
58.1066 504.0
58.3907 508.0
58.6748 517.0
58.9589 528.0
59.2429 494.0
59.527 554.0
59.8111 480.0
60.0952 553.0
60.3793 582.0
60.6634 504.0
60.9475 474.0
61.2316 548.0
61.5157 473.0
61.7998 527.0
62.0839 607.0
62.368 543.0
62.652 550.0
62.9361 482.0
63.2202 502.0
63.5043 503.0
63.7884 513.0
64.0725 472.0
64.3566 512.0
64.6407 467.0
64.9248 496.0
65.2089 500.0
65.493 479.0
65.7771 511.0
66.0611 541.0
66.3452 500.0
66.6293 541.0
66.9134 550.0
67.1975 523.0
67.4816 531.0
67.7657 517.0
68.0498 505.0
68.3339 496.0
68.618 473.0
68.9021 457.0
69.1862 469.0
69.4702 462.0
69.7543 485.0
70.0384 529.0
70.3225 481.0
70.6066 503.0
70.8907 486.0
71.1748 493.0
71.4589 461.0
71.743 492.0
72.0271 447.0
72.3112 505.0
72.5952 460.0
72.8793 471.0
73.1634 459.0
73.4475 453.0
73.7316 395.0
74.0157 458.0
74.2998 450.0
74.5839 401.0
74.868 430.0
75.1521 406.0
75.4362 384.0
75.7203 445.0
76.0043 385.0
76.2884 427.0
76.5725 410.0
76.8566 454.0
77.1407 384.0
77.4248 366.0
77.7089 400.0
77.993 391.0
78.2771 379.0
78.5612 395.0
78.8453 424.0
79.1294 365.0
79.4134 371.0
79.6975 368.0
79.9816 348.0
80.2657 392.0
80.5498 322.0
80.8339 336.0
81.118 354.0
81.4021 352.0
81.6862 321.0
81.9703 328.0
82.2544 333.0
82.5385 331.0
82.8225 288.0
83.1066 307.0
83.3907 318.0
83.6748 341.0
83.9589 306.0
84.243 301.0
84.5271 297.0
84.8112 294.0
85.0953 304.0
85.3794 271.0
85.6635 274.0
85.9476 288.0
86.2316 284.0
86.5157 290.0
86.7998 271.0
87.0839 246.0
87.368 251.0
87.6521 247.0
87.9362 259.0
88.2203 263.0
88.5044 260.0
88.7885 247.0
89.0726 214.0
89.3567 250.0
89.6407 285.0
89.9248 272.0
89.9415 275.0