File: code/XRD_Analysis/External Sources/Alex_SAPO/20220715_SAPO-34_70_2_220707_precalc.xy
4.98146 1430.0
5.26555 1345.0
5.54964 1237.0
5.83373 1138.0
6.11782 1062.0
6.40191 1174.0
6.68601 1090.0
6.9701 989.0
7.25419 988.0
7.53828 959.0
7.82237 935.0
8.10646 918.0
8.39055 864.0
8.67465 861.0
8.95874 850.0
9.24283 1536.0
9.52692 4978.0
9.81101 988.0
10.0951 920.0
10.3792 792.0
10.6633 774.0
10.9474 752.0
11.2315 778.0
11.5156 753.0
11.7997 719.0
12.0837 740.0
12.3678 756.0
12.6519 1114.0
12.936 821.0
13.2201 753.0
13.5042 627.0
13.7883 762.0
14.0724 1123.0
14.3565 752.0
14.6406 721.0
14.9247 779.0
15.2088 815.0
15.4928 850.0
15.7769 1369.0
16.061 1707.0
16.3451 1098.0
16.6292 1330.0
16.9133 1417.0
17.1974 1402.0
17.4815 1170.0
17.7656 1585.0
18.0497 1201.0
18.3338 976.0
18.6179 912.0
18.9019 1258.0
19.186 1049.0
19.4701 1237.0
19.7542 1412.0
20.0383 1584.0
20.3224 2538.0
20.6065 5222.0
20.8906 2135.0
21.1747 1964.0
21.4588 1130.0
21.7429 732.0
22.0269 1078.0
22.311 947.0
22.5951 783.0
22.8792 1073.0
23.1633 1016.0
23.4474 989.0
23.7315 1106.0
24.0156 1241.0
24.2997 1320.0
24.5838 1397.0
24.8679 1651.0
25.152 3183.0
25.436 1518.0
25.7201 4048.0
26.0042 1382.0
26.2883 1169.0
26.5724 949.0
26.8565 852.0
27.1406 732.0
27.4247 1036.0
27.7088 732.0
27.9929 886.0
28.277 1130.0
28.5611 724.0
28.8451 752.0
29.1292 840.0
29.4133 1929.0
29.6974 1132.0
29.9815 1559.0
30.2656 2585.0
30.5497 4451.0
30.8338 2689.0
31.1179 4055.0
31.402 1614.0
31.6861 1419.0
31.9702 1136.0
32.2542 1406.0
32.5383 840.0
32.8224 741.0
33.1065 842.0
33.3906 747.0
33.6747 912.0
33.9588 739.0
34.2429 1121.0
34.527 844.0
34.8111 647.0
35.0952 553.0
35.3793 588.0
35.6633 552.0
35.9474 700.0
36.2315 923.0
36.5156 449.0
36.7997 435.0
37.0838 459.0
37.3679 425.0
37.652 475.0
37.9361 494.0
38.2202 462.0
38.5043 570.0
38.7884 679.0
39.0724 659.0
39.3565 678.0
39.6406 802.0
39.9247 504.0
40.2088 487.0
40.4929 418.0
40.777 442.0
41.0611 423.0
41.3452 444.0
41.6293 436.0
41.9134 466.0
42.1975 399.0
42.4815 441.0
42.7656 496.0
43.0497 873.0
43.3338 925.0
43.6179 596.0
43.902 491.0
44.1861 454.0
44.4702 410.0
44.7543 367.0
45.0384 445.0
45.3225 370.0
45.6066 336.0
45.8906 389.0
46.1747 385.0
46.4588 394.0
46.7429 459.0
47.027 451.0
47.3111 583.0
47.5952 694.0
47.8793 454.0
48.1634 429.0
48.4475 496.0
48.7316 912.0
49.0156 1457.0
49.2997 573.0
49.5838 609.0
49.8679 676.0
50.152 739.0
50.4361 635.0
50.7202 794.0
51.0043 849.0
51.2884 610.0
51.5725 565.0
51.8566 476.0
52.1407 420.0
52.4247 426.0
52.7088 416.0
52.9929 859.0
53.277 570.0
53.5611 507.0
53.8452 487.0
54.1293 500.0
54.4134 611.0
54.6975 511.0
54.9816 492.0
55.2657 554.0
55.5498 680.0
55.8338 814.0
56.1179 659.0
56.402 470.0
56.6861 415.0
56.9702 402.0
57.2543 353.0
57.5384 370.0
57.8225 323.0
58.1066 361.0
58.3907 339.0
58.6748 357.0
58.9589 367.0
59.2429 442.0
59.527 667.0
59.8111 356.0
60.0952 373.0
60.3793 425.0
60.6634 548.0
60.9475 573.0
61.2316 674.0
61.5157 497.0
61.7998 399.0
62.0839 428.0
62.368 474.0
62.652 479.0
62.9361 426.0
63.2202 471.0
63.5043 446.0
63.7884 346.0
64.0725 387.0
64.3566 375.0
64.6407 422.0
64.9248 402.0
65.2089 399.0
65.493 389.0
65.7771 458.0
66.0611 641.0
66.3452 590.0
66.6293 610.0
66.9134 647.0
67.1975 637.0
67.4816 497.0
67.7657 395.0
68.0498 365.0
68.3339 354.0
68.618 370.0
68.9021 449.0
69.1862 477.0
69.4702 477.0
69.7543 500.0
70.0384 613.0
70.3225 610.0
70.6066 657.0
70.8907 649.0
71.1748 618.0
71.4589 495.0
71.743 443.0
72.0271 545.0
72.3112 508.0
72.5952 450.0
72.8793 385.0
73.1634 365.0
73.4475 339.0
73.7316 395.0
74.0157 389.0
74.2998 336.0
74.5839 410.0
74.868 355.0
75.1521 389.0
75.4362 406.0
75.7203 358.0
76.0043 365.0
76.2884 361.0
76.5725 305.0
76.8566 348.0
77.1407 347.0
77.4248 370.0
77.7089 340.0
77.993 353.0
78.2771 324.0
78.5612 309.0
78.8453 309.0
79.1294 332.0
79.4134 357.0
79.6975 340.0
79.9816 320.0
80.2657 353.0
80.5498 393.0
80.8339 401.0
81.118 346.0
81.4021 297.0
81.6862 318.0
81.9703 333.0
82.2544 307.0
82.5385 300.0
82.8225 334.0
83.1066 322.0
83.3907 272.0
83.6748 286.0
83.9589 328.0
84.243 306.0
84.5271 302.0
84.8112 229.0
85.0953 298.0
85.3794 238.0
85.6635 250.0
85.9476 239.0
86.2316 244.0
86.5157 244.0
86.7998 220.0
87.0839 282.0
87.368 277.0
87.6521 238.0
87.9362 221.0
88.2203 259.0
88.5044 230.0
88.7885 250.0
89.0726 223.0
89.3567 216.0
89.6407 221.0
89.9248 205.0
89.9415 197.0