File: code/XRD_Analysis/External Sources/Alex_SAPO/20220704_SAPO-34_70_220627_calc650C20h.xy
4.98146 1546.0
5.26555 1501.0
5.54964 1352.0
5.83373 1234.0
6.11782 1209.0
6.40191 1166.0
6.68601 1081.0
6.9701 1065.0
7.25419 1053.0
7.53828 1002.0
7.82237 971.0
8.10646 944.0
8.39055 956.0
8.67465 912.0
8.95874 916.0
9.24283 1094.0
9.52692 16133.0
9.81101 1054.0
10.0951 937.0
10.3792 867.0
10.6633 891.0
10.9474 828.0
11.2315 819.0
11.5156 815.0
11.7997 775.0
12.0837 866.0
12.3678 860.0
12.6519 826.0
12.936 3777.0
13.2201 961.0
13.5042 974.0
13.7883 722.0
14.0724 898.0
14.3565 694.0
14.6406 726.0
14.9247 728.0
15.2088 762.0
15.4928 709.0
15.7769 756.0
16.061 1975.0
16.3451 942.0
16.6292 951.0
16.9133 1083.0
17.1974 1158.0
17.4815 1078.0
17.7656 1482.0
18.0497 1078.0
18.3338 912.0
18.6179 931.0
18.9019 913.0
19.186 1621.0
19.4701 931.0
19.7542 955.0
20.0383 1141.0
20.3224 1265.0
20.6065 1769.0
20.8906 2599.0
21.1747 1581.0
21.4588 1512.0
21.7429 1045.0
22.0269 1129.0
22.311 1109.0
22.5951 1145.0
22.8792 1164.0
23.1633 1688.0
23.4474 1313.0
23.7315 1284.0
24.0156 1308.0
24.2997 1426.0
24.5838 1393.0
24.8679 1567.0
25.152 2244.0
25.436 1558.0
25.7201 1538.0
26.0042 1912.0
26.2883 2033.0
26.5724 1473.0
26.8565 1417.0
27.1406 1325.0
27.4247 1336.0
27.7088 1378.0
27.9929 1552.0
28.277 1798.0
28.5611 1519.0
28.8451 1352.0
29.1292 1284.0
29.4133 1343.0
29.6974 1607.0
29.9815 1516.0
30.2656 1785.0
30.5497 2156.0
30.8338 3521.0
31.1179 3220.0
31.402 2730.0
31.6861 1696.0
31.9702 1606.0
32.2542 1425.0
32.5383 1261.0
32.8224 1164.0
33.1065 1145.0
33.3906 1098.0
33.6747 1230.0
33.9588 1045.0
34.2429 1001.0
34.527 1029.0
34.8111 1225.0
35.0952 949.0
35.3793 978.0
35.6633 838.0
35.9474 810.0
36.2315 919.0
36.5156 779.0
36.7997 739.0
37.0838 748.0
37.3679 685.0
37.652 722.0
37.9361 724.0
38.2202 636.0
38.5043 678.0
38.7884 632.0
39.0724 647.0
39.3565 661.0
39.6406 719.0
39.9247 710.0
40.2088 729.0
40.4929 705.0
40.777 664.0
41.0611 617.0
41.3452 713.0
41.6293 635.0
41.9134 653.0
42.1975 643.0
42.4815 626.0
42.7656 650.0
43.0497 634.0
43.3338 719.0
43.6179 704.0
43.902 695.0
44.1861 688.0
44.4702 656.0
44.7543 626.0
45.0384 660.0
45.3225 642.0
45.6066 639.0
45.8906 605.0
46.1747 652.0
46.4588 613.0
46.7429 622.0
47.027 592.0
47.3111 576.0
47.5952 633.0
47.8793 689.0
48.1634 685.0
48.4475 635.0
48.7316 596.0
49.0156 664.0
49.2997 906.0
49.5838 696.0
49.8679 679.0
50.152 643.0
50.4361 696.0
50.7202 686.0
51.0043 731.0
51.2884 740.0
51.5725 690.0
51.8566 615.0
52.1407 620.0
52.4247 614.0
52.7088 595.0
52.9929 575.0
53.277 601.0
53.5611 583.0
53.8452 684.0
54.1293 617.0
54.4134 554.0
54.6975 604.0
54.9816 622.0
55.2657 539.0
55.5498 592.0
55.8338 611.0
56.1179 629.0
56.402 588.0
56.6861 594.0
56.9702 574.0
57.2543 592.0
57.5384 528.0
57.8225 507.0
58.1066 537.0
58.3907 513.0
58.6748 551.0
58.9589 554.0
59.2429 544.0
59.527 554.0
59.8111 543.0
60.0952 599.0
60.3793 533.0
60.6634 534.0
60.9475 545.0
61.2316 549.0
61.5157 509.0
61.7998 554.0
62.0839 553.0
62.368 491.0
62.652 529.0
62.9361 535.0
63.2202 539.0
63.5043 493.0
63.7884 523.0
64.0725 491.0
64.3566 512.0
64.6407 512.0
64.9248 497.0
65.2089 544.0
65.493 539.0
65.7771 517.0
66.0611 540.0
66.3452 512.0
66.6293 504.0
66.9134 572.0
67.1975 549.0
67.4816 552.0
67.7657 540.0
68.0498 516.0
68.3339 490.0
68.618 495.0
68.9021 495.0
69.1862 438.0
69.4702 469.0
69.7543 464.0
70.0384 440.0
70.3225 504.0
70.6066 506.0
70.8907 507.0
71.1748 492.0
71.4589 481.0
71.743 489.0
72.0271 505.0
72.3112 466.0
72.5952 412.0
72.8793 418.0
73.1634 427.0
73.4475 445.0
73.7316 399.0
74.0157 416.0
74.2998 396.0
74.5839 429.0
74.868 430.0
75.1521 433.0
75.4362 436.0
75.7203 442.0
76.0043 399.0
76.2884 401.0
76.5725 403.0
76.8566 387.0
77.1407 373.0
77.4248 384.0
77.7089 430.0
77.993 361.0
78.2771 380.0
78.5612 369.0
78.8453 370.0
79.1294 388.0
79.4134 344.0
79.6975 350.0
79.9816 365.0
80.2657 367.0
80.5498 367.0
80.8339 345.0
81.118 368.0
81.4021 322.0
81.6862 333.0
81.9703 294.0
82.2544 332.0
82.5385 325.0
82.8225 300.0
83.1066 314.0
83.3907 278.0
83.6748 314.0
83.9589 299.0
84.243 315.0
84.5271 301.0
84.8112 298.0
85.0953 317.0
85.3794 285.0
85.6635 305.0
85.9476 246.0
86.2316 284.0
86.5157 283.0
86.7998 267.0
87.0839 242.0
87.368 270.0
87.6521 268.0
87.9362 264.0
88.2203 260.0
88.5044 247.0
88.7885 267.0
89.0726 260.0
89.3567 253.0
89.6407 256.0
89.9248 233.0
89.9415 276.0