File: code/XRD_Analysis/External Sources/Alex_SAPO/20220430_SAPO-34_220427_calc650C.xy
4.98146 957.0
5.26555 888.0
5.54964 866.0
5.83373 781.0
6.11782 721.0
6.40191 691.0
6.68601 657.0
6.9701 622.0
7.25419 598.0
7.53828 560.0
7.82237 572.0
8.10646 527.0
8.39055 560.0
8.67465 559.0
8.95874 559.0
9.24283 764.0
9.52692 7398.0
9.81101 1699.0
10.0951 978.0
10.3792 723.0
10.6633 1102.0
10.9474 693.0
11.2315 599.0
11.5156 508.0
11.7997 512.0
12.0837 500.0
12.3678 535.0
12.6519 550.0
12.936 1702.0
13.2201 988.0
13.5042 743.0
13.7883 533.0
14.0724 597.0
14.3565 443.0
14.6406 477.0
14.9247 470.0
15.2088 463.0
15.4928 557.0
15.7769 556.0
16.061 953.0
16.3451 920.0
16.6292 662.0
16.9133 1098.0
17.1974 1145.0
17.4815 942.0
17.7656 798.0
18.0497 761.0
18.3338 564.0
18.6179 638.0
18.9019 647.0
19.186 1068.0
19.4701 800.0
19.7542 820.0
20.0383 897.0
20.3224 969.0
20.6065 1198.0
20.8906 2495.0
21.1747 1141.0
21.4588 1534.0
21.7429 904.0
22.0269 754.0
22.311 746.0
22.5951 870.0
22.8792 789.0
23.1633 956.0
23.4474 907.0
23.7315 927.0
24.0156 1366.0
24.2997 1090.0
24.5838 977.0
24.8679 899.0
25.152 1044.0
25.436 937.0
25.7201 930.0
26.0042 1167.0
26.2883 1402.0
26.5724 1160.0
26.8565 910.0
27.1406 837.0
27.4247 788.0
27.7088 862.0
27.9929 1029.0
28.277 955.0
28.5611 830.0
28.8451 774.0
29.1292 823.0
29.4133 836.0
29.6974 846.0
29.9815 898.0
30.2656 1065.0
30.5497 1147.0
30.8338 1505.0
31.1179 1656.0
31.402 1711.0
31.6861 1102.0
31.9702 937.0
32.2542 910.0
32.5383 918.0
32.8224 845.0
33.1065 803.0
33.3906 664.0
33.6747 551.0
33.9588 578.0
34.2429 550.0
34.527 521.0
34.8111 550.0
35.0952 532.0
35.3793 554.0
35.6633 478.0
35.9474 487.0
36.2315 425.0
36.5156 433.0
36.7997 461.0
37.0838 397.0
37.3679 365.0
37.652 394.0
37.9361 367.0
38.2202 361.0
38.5043 351.0
38.7884 352.0
39.0724 370.0
39.3565 395.0
39.6406 380.0
39.9247 346.0
40.2088 403.0
40.4929 368.0
40.777 383.0
41.0611 387.0
41.3452 376.0
41.6293 346.0
41.9134 317.0
42.1975 335.0
42.4815 357.0
42.7656 393.0
43.0497 377.0
43.3338 386.0
43.6179 387.0
43.902 362.0
44.1861 351.0
44.4702 358.0
44.7543 337.0
45.0384 339.0
45.3225 310.0
45.6066 372.0
45.8906 347.0
46.1747 332.0
46.4588 306.0
46.7429 321.0
47.027 334.0
47.3111 354.0
47.5952 292.0
47.8793 328.0
48.1634 301.0
48.4475 356.0
48.7316 324.0
49.0156 365.0
49.2997 424.0
49.5838 442.0
49.8679 357.0
50.152 382.0
50.4361 345.0
50.7202 383.0
51.0043 406.0
51.2884 400.0
51.5725 372.0
51.8566 377.0
52.1407 371.0
52.4247 358.0
52.7088 335.0
52.9929 362.0
53.277 348.0
53.5611 346.0
53.8452 332.0
54.1293 326.0
54.4134 348.0
54.6975 310.0
54.9816 314.0
55.2657 300.0
55.5498 333.0
55.8338 325.0
56.1179 317.0
56.402 307.0
56.6861 365.0
56.9702 303.0
57.2543 293.0
57.5384 307.0
57.8225 307.0
58.1066 286.0
58.3907 298.0
58.6748 307.0
58.9589 287.0
59.2429 298.0
59.527 306.0
59.8111 294.0
60.0952 315.0
60.3793 299.0
60.6634 298.0
60.9475 282.0
61.2316 305.0
61.5157 326.0
61.7998 291.0
62.0839 278.0
62.368 283.0
62.652 292.0
62.9361 269.0
63.2202 272.0
63.5043 283.0
63.7884 264.0
64.0725 245.0
64.3566 273.0
64.6407 258.0
64.9248 262.0
65.2089 272.0
65.493 236.0
65.7771 304.0
66.0611 288.0
66.3452 292.0
66.6293 267.0
66.9134 311.0
67.1975 293.0
67.4816 289.0
67.7657 285.0
68.0498 250.0
68.3339 269.0
68.618 287.0
68.9021 260.0
69.1862 278.0
69.4702 261.0
69.7543 256.0
70.0384 266.0
70.3225 253.0
70.6066 286.0
70.8907 261.0
71.1748 245.0
71.4589 256.0
71.743 244.0
72.0271 247.0
72.3112 268.0
72.5952 243.0
72.8793 260.0
73.1634 264.0
73.4475 251.0
73.7316 253.0
74.0157 224.0
74.2998 243.0
74.5839 219.0
74.868 248.0
75.1521 227.0
75.4362 219.0
75.7203 217.0
76.0043 210.0
76.2884 212.0
76.5725 219.0
76.8566 215.0
77.1407 198.0
77.4248 196.0
77.7089 247.0
77.993 203.0
78.2771 193.0
78.5612 196.0
78.8453 193.0
79.1294 197.0
79.4134 197.0
79.6975 204.0
79.9816 196.0
80.2657 185.0
80.5498 154.0
80.8339 192.0
81.118 178.0
81.4021 213.0
81.6862 193.0
81.9703 180.0
82.2544 196.0
82.5385 162.0
82.8225 185.0
83.1066 178.0
83.3907 161.0
83.6748 158.0
83.9589 152.0
84.243 147.0
84.5271 148.0
84.8112 177.0
85.0953 157.0
85.3794 159.0
85.6635 150.0
85.9476 157.0
86.2316 178.0
86.5157 142.0
86.7998 141.0
87.0839 158.0
87.368 147.0
87.6521 135.0
87.9362 131.0
88.2203 134.0
88.5044 148.0
88.7885 137.0
89.0726 127.0
89.3567 138.0
89.6407 132.0
89.9248 144.0
89.9415 107.0