File: code/XRD_Analysis/External Sources/Alex_SAPO/20221129_SAPO-34_CASALE_calc650C_10h.xy
4.98146 1565.0
5.26555 1397.0
5.54964 1367.0
5.83373 1200.0
6.11782 1234.0
6.40191 1153.0
6.68601 1087.0
6.9701 1102.0
7.25419 1047.0
7.53828 1038.0
7.82237 992.0
8.10646 998.0
8.39055 1005.0
8.67465 896.0
8.95874 865.0
9.24283 989.0
9.52692 4945.0
9.81101 984.0
10.0951 882.0
10.3792 832.0
10.6633 775.0
10.9474 842.0
11.2315 833.0
11.5156 842.0
11.7997 773.0
12.0837 751.0
12.3678 850.0
12.6519 853.0
12.936 1770.0
13.2201 864.0
13.5042 794.0
13.7883 787.0
14.0724 885.0
14.3565 829.0
14.6406 824.0
14.9247 870.0
15.2088 872.0
15.4928 897.0
15.7769 913.0
16.061 1499.0
16.3451 1042.0
16.6292 1015.0
16.9133 1029.0
17.1974 1098.0
17.4815 1178.0
17.7656 1654.0
18.0497 1392.0
18.3338 1363.0
18.6179 1456.0
18.9019 1528.0
19.186 1839.0
19.4701 1683.0
19.7542 1821.0
20.0383 1885.0
20.3224 2136.0
20.6065 2739.0
20.8906 3370.0
21.1747 2368.0
21.4588 2386.0
21.7429 2355.0
22.0269 2470.0
22.311 2375.0
22.5951 2413.0
22.8792 2383.0
23.1633 2789.0
23.4474 2208.0
23.7315 2122.0
24.0156 2159.0
24.2997 1954.0
24.5838 2002.0
24.8679 2146.0
25.152 2610.0
25.436 1953.0
25.7201 1784.0
26.0042 2059.0
26.2883 1987.0
26.5724 1663.0
26.8565 1583.0
27.1406 1572.0
27.4247 1517.0
27.7088 1480.0
27.9929 1616.0
28.277 1634.0
28.5611 1303.0
28.8451 1287.0
29.1292 1303.0
29.4133 1301.0
29.6974 1367.0
29.9815 1284.0
30.2656 1315.0
30.5497 1473.0
30.8338 2932.0
31.1179 2049.0
31.402 1666.0
31.6861 1315.0
31.9702 1232.0
32.2542 1088.0
32.5383 1065.0
32.8224 1033.0
33.1065 1038.0
33.3906 1039.0
33.6747 1113.0
33.9588 1059.0
34.2429 940.0
34.527 937.0
34.8111 1148.0
35.0952 989.0
35.3793 964.0
35.6633 846.0
35.9474 875.0
36.2315 994.0
36.5156 902.0
36.7997 840.0
37.0838 805.0
37.3679 822.0
37.652 821.0
37.9361 717.0
38.2202 752.0
38.5043 791.0
38.7884 728.0
39.0724 726.0
39.3565 776.0
39.6406 778.0
39.9247 715.0
40.2088 806.0
40.4929 688.0
40.777 663.0
41.0611 660.0
41.3452 653.0
41.6293 653.0
41.9134 643.0
42.1975 681.0
42.4815 721.0
42.7656 675.0
43.0497 746.0
43.3338 674.0
43.6179 700.0
43.902 774.0
44.1861 701.0
44.4702 728.0
44.7543 675.0
45.0384 730.0
45.3225 787.0
45.6066 743.0
45.8906 686.0
46.1747 708.0
46.4588 756.0
46.7429 667.0
47.027 644.0
47.3111 697.0
47.5952 675.0
47.8793 681.0
48.1634 730.0
48.4475 660.0
48.7316 647.0
49.0156 708.0
49.2997 740.0
49.5838 649.0
49.8679 691.0
50.152 653.0
50.4361 689.0
50.7202 666.0
51.0043 740.0
51.2884 659.0
51.5725 633.0
51.8566 622.0
52.1407 596.0
52.4247 611.0
52.7088 580.0
52.9929 628.0
53.277 668.0
53.5611 662.0
53.8452 699.0
54.1293 622.0
54.4134 599.0
54.6975 635.0
54.9816 621.0
55.2657 557.0
55.5498 639.0
55.8338 572.0
56.1179 610.0
56.402 663.0
56.6861 631.0
56.9702 574.0
57.2543 602.0
57.5384 510.0
57.8225 607.0
58.1066 607.0
58.3907 601.0
58.6748 570.0
58.9589 632.0
59.2429 572.0
59.527 591.0
59.8111 684.0
60.0952 661.0
60.3793 634.0
60.6634 614.0
60.9475 581.0
61.2316 660.0
61.5157 623.0
61.7998 651.0
62.0839 631.0
62.368 627.0
62.652 610.0
62.9361 634.0
63.2202 648.0
63.5043 611.0
63.7884 638.0
64.0725 600.0
64.3566 548.0
64.6407 666.0
64.9248 602.0
65.2089 604.0
65.493 636.0
65.7771 625.0
66.0611 644.0
66.3452 698.0
66.6293 729.0
66.9134 676.0
67.1975 688.0
67.4816 709.0
67.7657 586.0
68.0498 602.0
68.3339 590.0
68.618 625.0
68.9021 567.0
69.1862 556.0
69.4702 590.0
69.7543 613.0
70.0384 597.0
70.3225 584.0
70.6066 531.0
70.8907 576.0
71.1748 549.0
71.4589 553.0
71.743 556.0
72.0271 556.0
72.3112 557.0
72.5952 544.0
72.8793 507.0
73.1634 507.0
73.4475 533.0
73.7316 527.0
74.0157 508.0
74.2998 501.0
74.5839 526.0
74.868 527.0
75.1521 534.0
75.4362 512.0
75.7203 568.0
76.0043 523.0
76.2884 521.0
76.5725 542.0
76.8566 557.0
77.1407 494.0
77.4248 556.0
77.7089 519.0
77.993 506.0
78.2771 472.0
78.5612 581.0
78.8453 480.0
79.1294 490.0
79.4134 486.0
79.6975 517.0
79.9816 508.0
80.2657 474.0
80.5498 458.0
80.8339 441.0
81.118 457.0
81.4021 486.0
81.6862 449.0
81.9703 425.0
82.2544 431.0
82.5385 443.0
82.8225 394.0
83.1066 428.0
83.3907 457.0
83.6748 417.0
83.9589 400.0
84.243 375.0
84.5271 392.0
84.8112 367.0
85.0953 404.0
85.3794 381.0
85.6635 380.0
85.9476 356.0
86.2316 350.0
86.5157 320.0
86.7998 336.0
87.0839 326.0
87.368 358.0
87.6521 345.0
87.9362 348.0
88.2203 368.0
88.5044 303.0
88.7885 316.0
89.0726 315.0
89.3567 317.0
89.6407 341.0
89.9248 307.0
89.9415 307.0