File: code/XRD_Analysis/External Sources/Alex_SAPO/20220623_SAPO34_70_220608_calc650C20h.xy
4.98146 1533.0
5.26555 1448.0
5.54964 1366.0
5.83373 1211.0
6.11782 1160.0
6.40191 1146.0
6.68601 1015.0
6.9701 1041.0
7.25419 987.0
7.53828 953.0
7.82237 987.0
8.10646 895.0
8.39055 880.0
8.67465 873.0
8.95874 869.0
9.24283 975.0
9.52692 10527.0
9.81101 1031.0
10.0951 881.0
10.3792 821.0
10.6633 730.0
10.9474 774.0
11.2315 800.0
11.5156 734.0
11.7997 701.0
12.0837 703.0
12.3678 784.0
12.6519 770.0
12.936 2601.0
13.2201 871.0
13.5042 902.0
13.7883 626.0
14.0724 761.0
14.3565 649.0
14.6406 589.0
14.9247 601.0
15.2088 684.0
15.4928 648.0
15.7769 645.0
16.061 1648.0
16.3451 802.0
16.6292 794.0
16.9133 941.0
17.1974 966.0
17.4815 943.0
17.7656 1101.0
18.0497 822.0
18.3338 762.0
18.6179 767.0
18.9019 812.0
19.186 1276.0
19.4701 788.0
19.7542 828.0
20.0383 856.0
20.3224 980.0
20.6065 1632.0
20.8906 1881.0
21.1747 1269.0
21.4588 1262.0
21.7429 891.0
22.0269 972.0
22.311 924.0
22.5951 984.0
22.8792 1016.0
23.1633 1373.0
23.4474 1090.0
23.7315 1125.0
24.0156 1169.0
24.2997 1215.0
24.5838 1305.0
24.8679 1381.0
25.152 1549.0
25.436 1343.0
25.7201 1260.0
26.0042 1785.0
26.2883 1563.0
26.5724 1235.0
26.8565 1184.0
27.1406 1179.0
27.4247 1146.0
27.7088 1192.0
27.9929 1317.0
28.277 1456.0
28.5611 1150.0
28.8451 1180.0
29.1292 1168.0
29.4133 1224.0
29.6974 1397.0
29.9815 1390.0
30.2656 1568.0
30.5497 1934.0
30.8338 2803.0
31.1179 2846.0
31.402 2376.0
31.6861 1419.0
31.9702 1470.0
32.2542 1257.0
32.5383 1235.0
32.8224 1107.0
33.1065 1065.0
33.3906 980.0
33.6747 1035.0
33.9588 975.0
34.2429 912.0
34.527 949.0
34.8111 990.0
35.0952 836.0
35.3793 836.0
35.6633 807.0
35.9474 815.0
36.2315 817.0
36.5156 731.0
36.7997 676.0
37.0838 693.0
37.3679 651.0
37.652 633.0
37.9361 571.0
38.2202 618.0
38.5043 647.0
38.7884 647.0
39.0724 657.0
39.3565 631.0
39.6406 698.0
39.9247 716.0
40.2088 647.0
40.4929 646.0
40.777 620.0
41.0611 627.0
41.3452 641.0
41.6293 616.0
41.9134 645.0
42.1975 690.0
42.4815 698.0
42.7656 621.0
43.0497 686.0
43.3338 700.0
43.6179 680.0
43.902 645.0
44.1861 659.0
44.4702 650.0
44.7543 631.0
45.0384 622.0
45.3225 664.0
45.6066 627.0
45.8906 615.0
46.1747 588.0
46.4588 616.0
46.7429 618.0
47.027 616.0
47.3111 622.0
47.5952 585.0
47.8793 609.0
48.1634 623.0
48.4475 606.0
48.7316 638.0
49.0156 703.0
49.2997 860.0
49.5838 708.0
49.8679 689.0
50.152 673.0
50.4361 697.0
50.7202 680.0
51.0043 729.0
51.2884 691.0
51.5725 706.0
51.8566 633.0
52.1407 573.0
52.4247 651.0
52.7088 620.0
52.9929 602.0
53.277 599.0
53.5611 621.0
53.8452 638.0
54.1293 595.0
54.4134 648.0
54.6975 600.0
54.9816 605.0
55.2657 570.0
55.5498 621.0
55.8338 633.0
56.1179 609.0
56.402 623.0
56.6861 629.0
56.9702 627.0
57.2543 556.0
57.5384 592.0
57.8225 556.0
58.1066 534.0
58.3907 521.0
58.6748 600.0
58.9589 563.0
59.2429 531.0
59.527 531.0
59.8111 568.0
60.0952 639.0
60.3793 526.0
60.6634 536.0
60.9475 586.0
61.2316 540.0
61.5157 543.0
61.7998 612.0
62.0839 586.0
62.368 531.0
62.652 561.0
62.9361 556.0
63.2202 561.0
63.5043 552.0
63.7884 518.0
64.0725 551.0
64.3566 552.0
64.6407 561.0
64.9248 555.0
65.2089 567.0
65.493 545.0
65.7771 556.0
66.0611 589.0
66.3452 565.0
66.6293 540.0
66.9134 616.0
67.1975 597.0
67.4816 564.0
67.7657 565.0
68.0498 549.0
68.3339 560.0
68.618 510.0
68.9021 538.0
69.1862 507.0
69.4702 537.0
69.7543 533.0
70.0384 587.0
70.3225 518.0
70.6066 514.0
70.8907 495.0
71.1748 495.0
71.4589 504.0
71.743 465.0
72.0271 467.0
72.3112 475.0
72.5952 534.0
72.8793 458.0
73.1634 473.0
73.4475 464.0
73.7316 457.0
74.0157 450.0
74.2998 451.0
74.5839 436.0
74.868 447.0
75.1521 417.0
75.4362 460.0
75.7203 454.0
76.0043 443.0
76.2884 440.0
76.5725 434.0
76.8566 449.0
77.1407 402.0
77.4248 398.0
77.7089 438.0
77.993 442.0
78.2771 429.0
78.5612 423.0
78.8453 420.0
79.1294 401.0
79.4134 352.0
79.6975 401.0
79.9816 394.0
80.2657 369.0
80.5498 377.0
80.8339 412.0
81.118 346.0
81.4021 334.0
81.6862 333.0
81.9703 328.0
82.2544 353.0
82.5385 348.0
82.8225 326.0
83.1066 325.0
83.3907 317.0
83.6748 308.0
83.9589 341.0
84.243 311.0
84.5271 292.0
84.8112 329.0
85.0953 324.0
85.3794 305.0
85.6635 300.0
85.9476 295.0
86.2316 255.0
86.5157 295.0
86.7998 301.0
87.0839 315.0
87.368 290.0
87.6521 272.0
87.9362 271.0
88.2203 266.0
88.5044 291.0
88.7885 266.0
89.0726 303.0
89.3567 284.0
89.6407 299.0
89.9248 245.0
89.9415 298.0