File: code/XRD_Analysis/External Sources/Alex_SAPO/20221013_SAPO-18_221010_2_calc550C.xy
4.98146 1578.0
5.26555 1390.0
5.54964 1319.0
5.83373 1213.0
6.11782 1194.0
6.40191 1194.0
6.68601 1069.0
6.9701 1117.0
7.25419 1003.0
7.53828 942.0
7.82237 954.0
8.10646 935.0
8.39055 954.0
8.67465 959.0
8.95874 976.0
9.24283 1509.0
9.52692 11286.0
9.81101 1760.0
10.0951 994.0
10.3792 1110.0
10.6633 2564.0
10.9474 1038.0
11.2315 842.0
11.5156 809.0
11.7997 778.0
12.0837 775.0
12.3678 722.0
12.6519 853.0
12.936 2590.0
13.2201 940.0
13.5042 1314.0
13.7883 850.0
14.0724 868.0
14.3565 710.0
14.6406 740.0
14.9247 748.0
15.2088 746.0
15.4928 768.0
15.7769 844.0
16.061 1843.0
16.3451 1192.0
16.6292 994.0
16.9133 2405.0
17.1974 2409.0
17.4815 1683.0
17.7656 1015.0
18.0497 856.0
18.3338 873.0
18.6179 901.0
18.9019 923.0
19.186 1404.0
19.4701 1096.0
19.7542 1413.0
20.0383 1629.0
20.3224 2544.0
20.6065 2884.0
20.8906 2133.0
21.1747 2193.0
21.4588 5029.0
21.7429 1985.0
22.0269 1605.0
22.311 1443.0
22.5951 1665.0
22.8792 1582.0
23.1633 1772.0
23.4474 1430.0
23.7315 1671.0
24.0156 3348.0
24.2997 1868.0
24.5838 1401.0
24.8679 1296.0
25.152 1290.0
25.436 1499.0
25.7201 1447.0
26.0042 2112.0
26.2883 1845.0
26.5724 1916.0
26.8565 1397.0
27.1406 1393.0
27.4247 1344.0
27.7088 1480.0
27.9929 2037.0
28.277 1782.0
28.5611 1416.0
28.8451 1344.0
29.1292 1325.0
29.4133 1413.0
29.6974 1522.0
29.9815 1682.0
30.2656 1723.0
30.5497 1845.0
30.8338 1963.0
31.1179 2659.0
31.402 2422.0
31.6861 1522.0
31.9702 1463.0
32.2542 1523.0
32.5383 1682.0
32.8224 1489.0
33.1065 1451.0
33.3906 1109.0
33.6747 998.0
33.9588 988.0
34.2429 917.0
34.527 958.0
34.8111 897.0
35.0952 913.0
35.3793 1156.0
35.6633 1084.0
35.9474 824.0
36.2315 853.0
36.5156 829.0
36.7997 701.0
37.0838 688.0
37.3679 695.0
37.652 707.0
37.9361 648.0
38.2202 619.0
38.5043 646.0
38.7884 606.0
39.0724 670.0
39.3565 648.0
39.6406 650.0
39.9247 638.0
40.2088 615.0
40.4929 589.0
40.777 634.0
41.0611 630.0
41.3452 658.0
41.6293 660.0
41.9134 684.0
42.1975 613.0
42.4815 612.0
42.7656 603.0
43.0497 633.0
43.3338 725.0
43.6179 694.0
43.902 626.0
44.1861 612.0
44.4702 602.0
44.7543 604.0
45.0384 639.0
45.3225 587.0
45.6066 565.0
45.8906 558.0
46.1747 558.0
46.4588 537.0
46.7429 578.0
47.027 586.0
47.3111 582.0
47.5952 503.0
47.8793 558.0
48.1634 581.0
48.4475 582.0
48.7316 532.0
49.0156 638.0
49.2997 646.0
49.5838 695.0
49.8679 620.0
50.152 605.0
50.4361 605.0
50.7202 606.0
51.0043 622.0
51.2884 633.0
51.5725 561.0
51.8566 559.0
52.1407 591.0
52.4247 510.0
52.7088 548.0
52.9929 529.0
53.277 585.0
53.5611 556.0
53.8452 580.0
54.1293 513.0
54.4134 523.0
54.6975 521.0
54.9816 505.0
55.2657 557.0
55.5498 605.0
55.8338 613.0
56.1179 582.0
56.402 579.0
56.6861 537.0
56.9702 537.0
57.2543 474.0
57.5384 490.0
57.8225 498.0
58.1066 522.0
58.3907 408.0
58.6748 475.0
58.9589 480.0
59.2429 497.0
59.527 504.0
59.8111 543.0
60.0952 472.0
60.3793 453.0
60.6634 455.0
60.9475 455.0
61.2316 448.0
61.5157 464.0
61.7998 470.0
62.0839 457.0
62.368 422.0
62.652 498.0
62.9361 456.0
63.2202 513.0
63.5043 477.0
63.7884 511.0
64.0725 521.0
64.3566 434.0
64.6407 487.0
64.9248 447.0
65.2089 449.0
65.493 476.0
65.7771 475.0
66.0611 434.0
66.3452 433.0
66.6293 459.0
66.9134 477.0
67.1975 442.0
67.4816 458.0
67.7657 449.0
68.0498 446.0
68.3339 415.0
68.618 422.0
68.9021 425.0
69.1862 401.0
69.4702 418.0
69.7543 398.0
70.0384 380.0
70.3225 440.0
70.6066 414.0
70.8907 411.0
71.1748 436.0
71.4589 400.0
71.743 382.0
72.0271 396.0
72.3112 382.0
72.5952 373.0
72.8793 389.0
73.1634 369.0
73.4475 377.0
73.7316 410.0
74.0157 410.0
74.2998 410.0
74.5839 346.0
74.868 378.0
75.1521 363.0
75.4362 366.0
75.7203 382.0
76.0043 373.0
76.2884 403.0
76.5725 372.0
76.8566 377.0
77.1407 346.0
77.4248 357.0
77.7089 393.0
77.993 339.0
78.2771 362.0
78.5612 342.0
78.8453 336.0
79.1294 401.0
79.4134 360.0
79.6975 329.0
79.9816 347.0
80.2657 361.0
80.5498 321.0
80.8339 372.0
81.118 334.0
81.4021 340.0
81.6862 316.0
81.9703 314.0
82.2544 314.0
82.5385 302.0
82.8225 302.0
83.1066 308.0
83.3907 317.0
83.6748 317.0
83.9589 285.0
84.243 302.0
84.5271 331.0
84.8112 288.0
85.0953 268.0
85.3794 266.0
85.6635 254.0
85.9476 264.0
86.2316 262.0
86.5157 269.0
86.7998 262.0
87.0839 225.0
87.368 248.0
87.6521 233.0
87.9362 259.0
88.2203 250.0
88.5044 235.0
88.7885 243.0
89.0726 253.0
89.3567 224.0
89.6407 206.0
89.9248 224.0
89.9415 222.0