File: code/XRD_Analysis/External Sources/Alex_SAPO/20220715_SAPO-34_CASALE_dried.xy
4.98146 1669.0
5.26555 1607.0
5.54964 1488.0
5.83373 1313.0
6.11782 1290.0
6.40191 1248.0
6.68601 1198.0
6.9701 1164.0
7.25419 1156.0
7.53828 1027.0
7.82237 1080.0
8.10646 1005.0
8.39055 998.0
8.67465 998.0
8.95874 907.0
9.24283 1027.0
9.52692 5853.0
9.81101 1018.0
10.0951 847.0
10.3792 902.0
10.6633 897.0
10.9474 830.0
11.2315 830.0
11.5156 891.0
11.7997 831.0
12.0837 868.0
12.3678 854.0
12.6519 865.0
12.936 1943.0
13.2201 920.0
13.5042 879.0
13.7883 850.0
14.0724 875.0
14.3565 785.0
14.6406 887.0
14.9247 889.0
15.2088 863.0
15.4928 923.0
15.7769 930.0
16.061 1585.0
16.3451 1028.0
16.6292 1072.0
16.9133 1083.0
17.1974 1178.0
17.4815 1257.0
17.7656 1878.0
18.0497 1324.0
18.3338 1346.0
18.6179 1407.0
18.9019 1476.0
19.186 1719.0
19.4701 1616.0
19.7542 1772.0
20.0383 1784.0
20.3224 2019.0
20.6065 2742.0
20.8906 2846.0
21.1747 2296.0
21.4588 2303.0
21.7429 2257.0
22.0269 2392.0
22.311 2327.0
22.5951 2301.0
22.8792 2193.0
23.1633 2714.0
23.4474 2176.0
23.7315 2091.0
24.0156 2129.0
24.2997 2069.0
24.5838 1965.0
24.8679 2222.0
25.152 2140.0
25.436 1693.0
25.7201 1722.0
26.0042 2174.0
26.2883 1836.0
26.5724 1625.0
26.8565 1396.0
27.1406 1516.0
27.4247 1347.0
27.7088 1511.0
27.9929 1438.0
28.277 1583.0
28.5611 1304.0
28.8451 1220.0
29.1292 1276.0
29.4133 1228.0
29.6974 1349.0
29.9815 1208.0
30.2656 1350.0
30.5497 1479.0
30.8338 3129.0
31.1179 1888.0
31.402 1482.0
31.6861 1225.0
31.9702 1120.0
32.2542 1059.0
32.5383 1015.0
32.8224 1043.0
33.1065 1040.0
33.3906 948.0
33.6747 1040.0
33.9588 906.0
34.2429 947.0
34.527 912.0
34.8111 1085.0
35.0952 872.0
35.3793 876.0
35.6633 852.0
35.9474 894.0
36.2315 931.0
36.5156 821.0
36.7997 817.0
37.0838 756.0
37.3679 759.0
37.652 760.0
37.9361 761.0
38.2202 750.0
38.5043 735.0
38.7884 735.0
39.0724 719.0
39.3565 686.0
39.6406 744.0
39.9247 698.0
40.2088 683.0
40.4929 651.0
40.777 712.0
41.0611 617.0
41.3452 594.0
41.6293 665.0
41.9134 605.0
42.1975 649.0
42.4815 659.0
42.7656 598.0
43.0497 638.0
43.3338 727.0
43.6179 707.0
43.902 664.0
44.1861 645.0
44.4702 602.0
44.7543 643.0
45.0384 627.0
45.3225 721.0
45.6066 641.0
45.8906 678.0
46.1747 605.0
46.4588 615.0
46.7429 595.0
47.027 643.0
47.3111 649.0
47.5952 633.0
47.8793 651.0
48.1634 639.0
48.4475 598.0
48.7316 588.0
49.0156 647.0
49.2997 681.0
49.5838 634.0
49.8679 533.0
50.152 602.0
50.4361 654.0
50.7202 616.0
51.0043 685.0
51.2884 613.0
51.5725 587.0
51.8566 555.0
52.1407 605.0
52.4247 551.0
52.7088 514.0
52.9929 556.0
53.277 567.0
53.5611 632.0
53.8452 579.0
54.1293 511.0
54.4134 554.0
54.6975 556.0
54.9816 509.0
55.2657 582.0
55.5498 518.0
55.8338 532.0
56.1179 531.0
56.402 549.0
56.6861 606.0
56.9702 512.0
57.2543 541.0
57.5384 496.0
57.8225 531.0
58.1066 528.0
58.3907 536.0
58.6748 550.0
58.9589 535.0
59.2429 473.0
59.527 566.0
59.8111 560.0
60.0952 586.0
60.3793 569.0
60.6634 553.0
60.9475 543.0
61.2316 548.0
61.5157 602.0
61.7998 594.0
62.0839 542.0
62.368 486.0
62.652 559.0
62.9361 564.0
63.2202 533.0
63.5043 541.0
63.7884 533.0
64.0725 493.0
64.3566 519.0
64.6407 536.0
64.9248 570.0
65.2089 492.0
65.493 501.0
65.7771 548.0
66.0611 571.0
66.3452 616.0
66.6293 592.0
66.9134 588.0
67.1975 614.0
67.4816 545.0
67.7657 543.0
68.0498 498.0
68.3339 504.0
68.618 482.0
68.9021 540.0
69.1862 523.0
69.4702 493.0
69.7543 475.0
70.0384 522.0
70.3225 492.0
70.6066 473.0
70.8907 480.0
71.1748 476.0
71.4589 482.0
71.743 488.0
72.0271 450.0
72.3112 432.0
72.5952 462.0
72.8793 440.0
73.1634 443.0
73.4475 449.0
73.7316 445.0
74.0157 392.0
74.2998 461.0
74.5839 467.0
74.868 415.0
75.1521 434.0
75.4362 462.0
75.7203 471.0
76.0043 473.0
76.2884 456.0
76.5725 441.0
76.8566 471.0
77.1407 449.0
77.4248 425.0
77.7089 425.0
77.993 430.0
78.2771 434.0
78.5612 434.0
78.8453 410.0
79.1294 426.0
79.4134 436.0
79.6975 391.0
79.9816 466.0
80.2657 407.0
80.5498 448.0
80.8339 400.0
81.118 366.0
81.4021 402.0
81.6862 426.0
81.9703 362.0
82.2544 370.0
82.5385 323.0
82.8225 347.0
83.1066 385.0
83.3907 332.0
83.6748 348.0
83.9589 338.0
84.243 326.0
84.5271 344.0
84.8112 350.0
85.0953 333.0
85.3794 302.0
85.6635 295.0
85.9476 273.0
86.2316 279.0
86.5157 311.0
86.7998 323.0
87.0839 294.0
87.368 288.0
87.6521 282.0
87.9362 323.0
88.2203 297.0
88.5044 310.0
88.7885 293.0
89.0726 290.0
89.3567 280.0
89.6407 258.0
89.9248 297.0
89.9415 266.0