File: code/XRD_Analysis/External Sources/Alex_SAPO/20220715_SAPO-34_70_2_220707_calc650C_20h.xy
4.98146 1455.0
5.26555 1315.0
5.54964 1285.0
5.83373 1239.0
6.11782 1114.0
6.40191 1136.0
6.68601 1101.0
6.9701 1015.0
7.25419 930.0
7.53828 937.0
7.82237 946.0
8.10646 889.0
8.39055 882.0
8.67465 907.0
8.95874 913.0
9.24283 902.0
9.52692 12524.0
9.81101 979.0
10.0951 875.0
10.3792 854.0
10.6633 813.0
10.9474 722.0
11.2315 725.0
11.5156 762.0
11.7997 763.0
12.0837 779.0
12.3678 746.0
12.6519 739.0
12.936 2721.0
13.2201 877.0
13.5042 904.0
13.7883 648.0
14.0724 778.0
14.3565 606.0
14.6406 701.0
14.9247 683.0
15.2088 659.0
15.4928 595.0
15.7769 621.0
16.061 1383.0
16.3451 775.0
16.6292 768.0
16.9133 996.0
17.1974 938.0
17.4815 849.0
17.7656 1111.0
18.0497 844.0
18.3338 720.0
18.6179 752.0
18.9019 742.0
19.186 1254.0
19.4701 677.0
19.7542 772.0
20.0383 847.0
20.3224 904.0
20.6065 1278.0
20.8906 2225.0
21.1747 1222.0
21.4588 1378.0
21.7429 884.0
22.0269 855.0
22.311 830.0
22.5951 880.0
22.8792 902.0
23.1633 1179.0
23.4474 975.0
23.7315 962.0
24.0156 1010.0
24.2997 1111.0
24.5838 1154.0
24.8679 1160.0
25.152 1510.0
25.436 1090.0
25.7201 1117.0
26.0042 1276.0
26.2883 1492.0
26.5724 1062.0
26.8565 1054.0
27.1406 912.0
27.4247 930.0
27.7088 956.0
27.9929 1179.0
28.277 1221.0
28.5611 1024.0
28.8451 959.0
29.1292 969.0
29.4133 948.0
29.6974 1156.0
29.9815 1127.0
30.2656 1256.0
30.5497 1624.0
30.8338 2387.0
31.1179 2371.0
31.402 2051.0
31.6861 1306.0
31.9702 1291.0
32.2542 1074.0
32.5383 913.0
32.8224 900.0
33.1065 789.0
33.3906 806.0
33.6747 897.0
33.9588 759.0
34.2429 738.0
34.527 717.0
34.8111 866.0
35.0952 665.0
35.3793 735.0
35.6633 633.0
35.9474 630.0
36.2315 745.0
36.5156 564.0
36.7997 501.0
37.0838 542.0
37.3679 507.0
37.652 508.0
37.9361 491.0
38.2202 480.0
38.5043 478.0
38.7884 516.0
39.0724 496.0
39.3565 539.0
39.6406 579.0
39.9247 480.0
40.2088 538.0
40.4929 519.0
40.777 523.0
41.0611 505.0
41.3452 528.0
41.6293 492.0
41.9134 528.0
42.1975 471.0
42.4815 471.0
42.7656 487.0
43.0497 514.0
43.3338 560.0
43.6179 528.0
43.902 532.0
44.1861 483.0
44.4702 526.0
44.7543 482.0
45.0384 488.0
45.3225 497.0
45.6066 476.0
45.8906 472.0
46.1747 455.0
46.4588 474.0
46.7429 440.0
47.027 430.0
47.3111 492.0
47.5952 489.0
47.8793 462.0
48.1634 514.0
48.4475 481.0
48.7316 445.0
49.0156 501.0
49.2997 741.0
49.5838 516.0
49.8679 471.0
50.152 493.0
50.4361 486.0
50.7202 486.0
51.0043 531.0
51.2884 534.0
51.5725 498.0
51.8566 498.0
52.1407 455.0
52.4247 448.0
52.7088 509.0
52.9929 418.0
53.277 488.0
53.5611 446.0
53.8452 512.0
54.1293 456.0
54.4134 441.0
54.6975 441.0
54.9816 472.0
55.2657 446.0
55.5498 473.0
55.8338 448.0
56.1179 458.0
56.402 490.0
56.6861 438.0
56.9702 467.0
57.2543 465.0
57.5384 422.0
57.8225 396.0
58.1066 389.0
58.3907 439.0
58.6748 402.0
58.9589 399.0
59.2429 428.0
59.527 411.0
59.8111 451.0
60.0952 487.0
60.3793 400.0
60.6634 376.0
60.9475 395.0
61.2316 435.0
61.5157 406.0
61.7998 416.0
62.0839 435.0
62.368 389.0
62.652 395.0
62.9361 379.0
63.2202 375.0
63.5043 396.0
63.7884 375.0
64.0725 398.0
64.3566 400.0
64.6407 418.0
64.9248 415.0
65.2089 384.0
65.493 415.0
65.7771 381.0
66.0611 423.0
66.3452 391.0
66.6293 400.0
66.9134 445.0
67.1975 451.0
67.4816 427.0
67.7657 411.0
68.0498 357.0
68.3339 389.0
68.618 382.0
68.9021 364.0
69.1862 357.0
69.4702 428.0
69.7543 358.0
70.0384 400.0
70.3225 426.0
70.6066 396.0
70.8907 389.0
71.1748 389.0
71.4589 372.0
71.743 345.0
72.0271 346.0
72.3112 358.0
72.5952 352.0
72.8793 322.0
73.1634 316.0
73.4475 356.0
73.7316 365.0
74.0157 329.0
74.2998 354.0
74.5839 341.0
74.868 344.0
75.1521 306.0
75.4362 355.0
75.7203 304.0
76.0043 322.0
76.2884 299.0
76.5725 305.0
76.8566 331.0
77.1407 323.0
77.4248 271.0
77.7089 285.0
77.993 304.0
78.2771 295.0
78.5612 320.0
78.8453 278.0
79.1294 306.0
79.4134 273.0
79.6975 291.0
79.9816 267.0
80.2657 278.0
80.5498 266.0
80.8339 268.0
81.118 298.0
81.4021 252.0
81.6862 258.0
81.9703 258.0
82.2544 262.0
82.5385 237.0
82.8225 237.0
83.1066 228.0
83.3907 230.0
83.6748 248.0
83.9589 237.0
84.243 233.0
84.5271 210.0
84.8112 228.0
85.0953 232.0
85.3794 192.0
85.6635 221.0
85.9476 200.0
86.2316 198.0
86.5157 211.0
86.7998 210.0
87.0839 184.0
87.368 206.0
87.6521 207.0
87.9362 201.0
88.2203 225.0
88.5044 182.0
88.7885 217.0
89.0726 200.0
89.3567 222.0
89.6407 223.0
89.9248 197.0
89.9415 201.0