File: code/XRD_Analysis/External Sources/Alex_SAPO/20220730_SAPO-34_30_1_220725_calc650C.xy
4.98146 1450.0
5.26555 1331.0
5.54964 1224.0
5.83373 1276.0
6.11782 1136.0
6.40191 1112.0
6.68601 1023.0
6.9701 981.0
7.25419 1129.0
7.53828 992.0
7.82237 893.0
8.10646 894.0
8.39055 845.0
8.67465 900.0
8.95874 761.0
9.24283 926.0
9.52692 9694.0
9.81101 945.0
10.0951 847.0
10.3792 791.0
10.6633 792.0
10.9474 798.0
11.2315 737.0
11.5156 692.0
11.7997 724.0
12.0837 725.0
12.3678 657.0
12.6519 715.0
12.936 2626.0
13.2201 745.0
13.5042 930.0
13.7883 642.0
14.0724 665.0
14.3565 567.0
14.6406 587.0
14.9247 712.0
15.2088 595.0
15.4928 625.0
15.7769 636.0
16.061 1521.0
16.3451 747.0
16.6292 795.0
16.9133 1107.0
17.1974 965.0
17.4815 833.0
17.7656 941.0
18.0497 754.0
18.3338 753.0
18.6179 727.0
18.9019 710.0
19.186 1136.0
19.4701 804.0
19.7542 1699.0
20.0383 1104.0
20.3224 1894.0
20.6065 2085.0
20.8906 1603.0
21.1747 3534.0
21.4588 2728.0
21.7429 1117.0
22.0269 1023.0
22.311 1954.0
22.5951 1286.0
22.8792 1272.0
23.1633 1521.0
23.4474 1130.0
23.7315 1135.0
24.0156 1200.0
24.2997 1294.0
24.5838 1173.0
24.8679 1356.0
25.152 1282.0
25.436 1213.0
25.7201 1290.0
26.0042 2258.0
26.2883 1383.0
26.5724 1205.0
26.8565 1270.0
27.1406 1007.0
27.4247 1074.0
27.7088 1103.0
27.9929 1177.0
28.277 1314.0
28.5611 1154.0
28.8451 1194.0
29.1292 1719.0
29.4133 1125.0
29.6974 1426.0
29.9815 1958.0
30.2656 1557.0
30.5497 1888.0
30.8338 2291.0
31.1179 2548.0
31.402 2090.0
31.6861 1447.0
31.9702 1359.0
32.2542 1208.0
32.5383 1289.0
32.8224 1161.0
33.1065 998.0
33.3906 1024.0
33.6747 1226.0
33.9588 901.0
34.2429 851.0
34.527 1365.0
34.8111 881.0
35.0952 851.0
35.3793 1034.0
35.6633 977.0
35.9474 851.0
36.2315 802.0
36.5156 716.0
36.7997 653.0
37.0838 736.0
37.3679 654.0
37.652 680.0
37.9361 963.0
38.2202 596.0
38.5043 691.0
38.7884 623.0
39.0724 625.0
39.3565 610.0
39.6406 595.0
39.9247 591.0
40.2088 645.0
40.4929 566.0
40.777 618.0
41.0611 617.0
41.3452 654.0
41.6293 618.0
41.9134 611.0
42.1975 690.0
42.4815 651.0
42.7656 627.0
43.0497 707.0
43.3338 668.0
43.6179 692.0
43.902 636.0
44.1861 604.0
44.4702 583.0
44.7543 574.0
45.0384 617.0
45.3225 609.0
45.6066 596.0
45.8906 578.0
46.1747 583.0
46.4588 570.0
46.7429 576.0
47.027 520.0
47.3111 578.0
47.5952 633.0
47.8793 667.0
48.1634 568.0
48.4475 571.0
48.7316 605.0
49.0156 628.0
49.2997 726.0
49.5838 638.0
49.8679 628.0
50.152 574.0
50.4361 591.0
50.7202 678.0
51.0043 664.0
51.2884 648.0
51.5725 642.0
51.8566 596.0
52.1407 710.0
52.4247 607.0
52.7088 637.0
52.9929 541.0
53.277 580.0
53.5611 578.0
53.8452 616.0
54.1293 568.0
54.4134 545.0
54.6975 532.0
54.9816 598.0
55.2657 573.0
55.5498 613.0
55.8338 618.0
56.1179 616.0
56.402 596.0
56.6861 620.0
56.9702 587.0
57.2543 536.0
57.5384 539.0
57.8225 483.0
58.1066 474.0
58.3907 565.0
58.6748 693.0
58.9589 543.0
59.2429 554.0
59.527 501.0
59.8111 543.0
60.0952 567.0
60.3793 520.0
60.6634 538.0
60.9475 566.0
61.2316 496.0
61.5157 532.0
61.7998 513.0
62.0839 526.0
62.368 525.0
62.652 493.0
62.9361 535.0
63.2202 542.0
63.5043 532.0
63.7884 538.0
64.0725 538.0
64.3566 504.0
64.6407 509.0
64.9248 500.0
65.2089 522.0
65.493 543.0
65.7771 544.0
66.0611 542.0
66.3452 496.0
66.6293 529.0
66.9134 573.0
67.1975 534.0
67.4816 496.0
67.7657 535.0
68.0498 474.0
68.3339 524.0
68.618 479.0
68.9021 482.0
69.1862 461.0
69.4702 464.0
69.7543 433.0
70.0384 464.0
70.3225 450.0
70.6066 470.0
70.8907 453.0
71.1748 455.0
71.4589 442.0
71.743 463.0
72.0271 487.0
72.3112 443.0
72.5952 440.0
72.8793 470.0
73.1634 451.0
73.4475 434.0
73.7316 430.0
74.0157 429.0
74.2998 406.0
74.5839 455.0
74.868 423.0
75.1521 449.0
75.4362 445.0
75.7203 422.0
76.0043 444.0
76.2884 436.0
76.5725 407.0
76.8566 414.0
77.1407 409.0
77.4248 423.0
77.7089 387.0
77.993 386.0
78.2771 389.0
78.5612 369.0
78.8453 387.0
79.1294 434.0
79.4134 414.0
79.6975 385.0
79.9816 372.0
80.2657 358.0
80.5498 352.0
80.8339 361.0
81.118 355.0
81.4021 366.0
81.6862 339.0
81.9703 314.0
82.2544 309.0
82.5385 319.0
82.8225 322.0
83.1066 315.0
83.3907 301.0
83.6748 308.0
83.9589 328.0
84.243 313.0
84.5271 288.0
84.8112 316.0
85.0953 266.0
85.3794 293.0
85.6635 292.0
85.9476 261.0
86.2316 246.0
86.5157 286.0
86.7998 257.0
87.0839 271.0
87.368 260.0
87.6521 246.0
87.9362 262.0
88.2203 279.0
88.5044 247.0
88.7885 216.0
89.0726 282.0
89.3567 223.0
89.6407 253.0
89.9248 240.0
89.9415 271.0