File: code/XRD_Analysis/External Sources/Alex_SAPO/20221110_SAPO-18_221103_calc550C.xy
4.98146 1735.0
5.26555 1551.0
5.54964 1435.0
5.83373 1290.0
6.11782 1328.0
6.40191 1251.0
6.68601 1131.0
6.9701 1087.0
7.25419 1059.0
7.53828 973.0
7.82237 987.0
8.10646 974.0
8.39055 911.0
8.67465 924.0
8.95874 975.0
9.24283 1212.0
9.52692 5794.0
9.81101 1631.0
10.0951 923.0
10.3792 964.0
10.6633 1685.0
10.9474 949.0
11.2315 804.0
11.5156 768.0
11.7997 746.0
12.0837 773.0
12.3678 735.0
12.6519 845.0
12.936 1711.0
13.2201 821.0
13.5042 1052.0
13.7883 775.0
14.0724 873.0
14.3565 679.0
14.6406 784.0
14.9247 683.0
15.2088 760.0
15.4928 769.0
15.7769 784.0
16.061 1294.0
16.3451 1018.0
16.6292 982.0
16.9133 1709.0
17.1974 1682.0
17.4815 1399.0
17.7656 986.0
18.0497 934.0
18.3338 938.0
18.6179 937.0
18.9019 995.0
19.186 1293.0
19.4701 1035.0
19.7542 1265.0
20.0383 1350.0
20.3224 1451.0
20.6065 1646.0
20.8906 1596.0
21.1747 1445.0
21.4588 2252.0
21.7429 1445.0
22.0269 1318.0
22.311 1361.0
22.5951 1364.0
22.8792 1286.0
23.1633 1521.0
23.4474 1407.0
23.7315 1603.0
24.0156 2667.0
24.2997 1850.0
24.5838 1418.0
24.8679 1387.0
25.152 1381.0
25.436 1509.0
25.7201 1538.0
26.0042 1900.0
26.2883 1867.0
26.5724 1785.0
26.8565 1446.0
27.1406 1338.0
27.4247 1450.0
27.7088 1421.0
27.9929 1799.0
28.277 1611.0
28.5611 1322.0
28.8451 1333.0
29.1292 1297.0
29.4133 1329.0
29.6974 1520.0
29.9815 1459.0
30.2656 1564.0
30.5497 1605.0
30.8338 1646.0
31.1179 2083.0
31.402 2046.0
31.6861 1416.0
31.9702 1361.0
32.2542 1371.0
32.5383 1429.0
32.8224 1284.0
33.1065 1278.0
33.3906 1081.0
33.6747 949.0
33.9588 953.0
34.2429 833.0
34.527 989.0
34.8111 848.0
35.0952 835.0
35.3793 766.0
35.6633 738.0
35.9474 801.0
36.2315 781.0
36.5156 806.0
36.7997 779.0
37.0838 664.0
37.3679 705.0
37.652 617.0
37.9361 686.0
38.2202 663.0
38.5043 675.0
38.7884 650.0
39.0724 661.0
39.3565 656.0
39.6406 654.0
39.9247 617.0
40.2088 675.0
40.4929 678.0
40.777 679.0
41.0611 668.0
41.3452 662.0
41.6293 652.0
41.9134 645.0
42.1975 642.0
42.4815 676.0
42.7656 628.0
43.0497 574.0
43.3338 622.0
43.6179 711.0
43.902 625.0
44.1861 620.0
44.4702 557.0
44.7543 621.0
45.0384 590.0
45.3225 586.0
45.6066 557.0
45.8906 592.0
46.1747 564.0
46.4588 573.0
46.7429 582.0
47.027 618.0
47.3111 558.0
47.5952 549.0
47.8793 523.0
48.1634 566.0
48.4475 570.0
48.7316 539.0
49.0156 594.0
49.2997 627.0
49.5838 605.0
49.8679 618.0
50.152 639.0
50.4361 574.0
50.7202 559.0
51.0043 558.0
51.2884 587.0
51.5725 580.0
51.8566 547.0
52.1407 524.0
52.4247 508.0
52.7088 466.0
52.9929 555.0
53.277 527.0
53.5611 516.0
53.8452 537.0
54.1293 490.0
54.4134 540.0
54.6975 503.0
54.9816 540.0
55.2657 492.0
55.5498 493.0
55.8338 531.0
56.1179 520.0
56.402 551.0
56.6861 535.0
56.9702 487.0
57.2543 534.0
57.5384 461.0
57.8225 443.0
58.1066 475.0
58.3907 498.0
58.6748 464.0
58.9589 436.0
59.2429 471.0
59.527 438.0
59.8111 465.0
60.0952 471.0
60.3793 493.0
60.6634 483.0
60.9475 482.0
61.2316 460.0
61.5157 493.0
61.7998 463.0
62.0839 461.0
62.368 435.0
62.652 448.0
62.9361 470.0
63.2202 474.0
63.5043 432.0
63.7884 481.0
64.0725 408.0
64.3566 486.0
64.6407 495.0
64.9248 449.0
65.2089 465.0
65.493 469.0
65.7771 481.0
66.0611 473.0
66.3452 474.0
66.6293 486.0
66.9134 492.0
67.1975 507.0
67.4816 447.0
67.7657 442.0
68.0498 434.0
68.3339 463.0
68.618 412.0
68.9021 438.0
69.1862 416.0
69.4702 394.0
69.7543 406.0
70.0384 384.0
70.3225 422.0
70.6066 441.0
70.8907 397.0
71.1748 451.0
71.4589 388.0
71.743 365.0
72.0271 404.0
72.3112 400.0
72.5952 369.0
72.8793 355.0
73.1634 402.0
73.4475 362.0
73.7316 423.0
74.0157 351.0
74.2998 377.0
74.5839 349.0
74.868 368.0
75.1521 368.0
75.4362 382.0
75.7203 333.0
76.0043 348.0
76.2884 368.0
76.5725 363.0
76.8566 318.0
77.1407 317.0
77.4248 344.0
77.7089 346.0
77.993 308.0
78.2771 285.0
78.5612 315.0
78.8453 349.0
79.1294 310.0
79.4134 317.0
79.6975 288.0
79.9816 313.0
80.2657 285.0
80.5498 318.0
80.8339 337.0
81.118 329.0
81.4021 301.0
81.6862 293.0
81.9703 323.0
82.2544 271.0
82.5385 262.0
82.8225 268.0
83.1066 279.0
83.3907 291.0
83.6748 255.0
83.9589 277.0
84.243 297.0
84.5271 276.0
84.8112 264.0
85.0953 275.0
85.3794 285.0
85.6635 251.0
85.9476 251.0
86.2316 225.0
86.5157 230.0
86.7998 250.0
87.0839 248.0
87.368 220.0
87.6521 248.0
87.9362 215.0
88.2203 258.0
88.5044 222.0
88.7885 227.0
89.0726 225.0
89.3567 203.0
89.6407 239.0
89.9248 221.0
89.9415 239.0