File: code/XRD_Analysis/External Sources/Alex_SAPO/20230311_SAPO-18_230301_newauto_calc550C.xy
4.98146 4413.0
5.26555 4265.0
5.54964 3824.0
5.83373 3642.0
6.11782 3481.0
6.40191 3303.0
6.68601 3126.0
6.9701 3131.0
7.25419 3046.0
7.53828 2883.0
7.82237 2783.0
8.10646 2655.0
8.39055 2769.0
8.67465 2781.0
8.95874 2873.0
9.24283 4459.0
9.52692 36232.0
9.81101 5002.0
10.0951 3041.0
10.3792 3476.0
10.6633 7070.0
10.9474 2984.0
11.2315 2611.0
11.5156 2378.0
11.7997 2201.0
12.0837 2157.0
12.3678 2285.0
12.6519 2550.0
12.936 8089.0
13.2201 2598.0
13.5042 4014.0
13.7883 2514.0
14.0724 2494.0
14.3565 2033.0
14.6406 2093.0
14.9247 2242.0
15.2088 2163.0
15.4928 2262.0
15.7769 2502.0
16.061 5860.0
16.3451 3722.0
16.6292 3126.0
16.9133 7225.0
17.1974 7158.0
17.4815 5228.0
17.7656 3225.0
18.0497 2790.0
18.3338 2657.0
18.6179 2550.0
18.9019 2867.0
19.186 4216.0
19.4701 3191.0
19.7542 4445.0
20.0383 4322.0
20.3224 4549.0
20.6065 7114.0
20.8906 5198.0
21.1747 5072.0
21.4588 8507.0
21.7429 4249.0
22.0269 3534.0
22.311 3434.0
22.5951 4150.0
22.8792 3784.0
23.1633 4745.0
23.4474 4296.0
23.7315 5286.0
24.0156 10303.0
24.2997 6482.0
24.5838 4397.0
24.8679 4031.0
25.152 4240.0
25.436 4582.0
25.7201 4646.0
26.0042 7108.0
26.2883 6264.0
26.5724 6437.0
26.8565 4328.0
27.1406 4187.0
27.4247 4118.0
27.7088 4567.0
27.9929 6179.0
28.277 5693.0
28.5611 4488.0
28.8451 3996.0
29.1292 3873.0
29.4133 4288.0
29.6974 5039.0
29.9815 5088.0
30.2656 5372.0
30.5497 5897.0
30.8338 6296.0
31.1179 8149.0
31.402 7950.0
31.6861 4994.0
31.9702 4761.0
32.2542 4867.0
32.5383 5194.0
32.8224 4698.0
33.1065 4611.0
33.3906 3541.0
33.6747 3008.0
33.9588 2906.0
34.2429 2671.0
34.527 2677.0
34.8111 2599.0
35.0952 2555.0
35.3793 2378.0
35.6633 2335.0
35.9474 2248.0
36.2315 2436.0
36.5156 2403.0
36.7997 2172.0
37.0838 2067.0
37.3679 1941.0
37.652 1930.0
37.9361 1847.0
38.2202 1864.0
38.5043 1884.0
38.7884 1894.0
39.0724 2038.0
39.3565 2044.0
39.6406 2071.0
39.9247 1937.0
40.2088 1967.0
40.4929 1815.0
40.777 1846.0
41.0611 1897.0
41.3452 1903.0
41.6293 2065.0
41.9134 1998.0
42.1975 1973.0
42.4815 1891.0
42.7656 1826.0
43.0497 1927.0
43.3338 2066.0
43.6179 1966.0
43.902 1848.0
44.1861 1853.0
44.4702 1801.0
44.7543 1826.0
45.0384 1811.0
45.3225 1783.0
45.6066 1818.0
45.8906 1765.0
46.1747 1720.0
46.4588 1740.0
46.7429 1663.0
47.027 1755.0
47.3111 1683.0
47.5952 1685.0
47.8793 1690.0
48.1634 1801.0
48.4475 1629.0
48.7316 1717.0
49.0156 1984.0
49.2997 2185.0
49.5838 2207.0
49.8679 1997.0
50.152 1936.0
50.4361 1941.0
50.7202 1990.0
51.0043 2008.0
51.2884 1928.0
51.5725 1849.0
51.8566 1887.0
52.1407 1766.0
52.4247 1754.0
52.7088 1786.0
52.9929 1703.0
53.277 1726.0
53.5611 1782.0
53.8452 1757.0
54.1293 1691.0
54.4134 1634.0
54.6975 1682.0
54.9816 1650.0
55.2657 1570.0
55.5498 1707.0
55.8338 1827.0
56.1179 1734.0
56.402 1784.0
56.6861 1664.0
56.9702 1571.0
57.2543 1551.0
57.5384 1560.0
57.8225 1497.0
58.1066 1568.0
58.3907 1412.0
58.6748 1507.0
58.9589 1504.0
59.2429 1524.0
59.527 1663.0
59.8111 1645.0
60.0952 1558.0
60.3793 1489.0
60.6634 1582.0
60.9475 1491.0
61.2316 1523.0
61.5157 1552.0
61.7998 1572.0
62.0839 1427.0
62.368 1539.0
62.652 1439.0
62.9361 1382.0
63.2202 1429.0
63.5043 1498.0
63.7884 1506.0
64.0725 1408.0
64.3566 1512.0
64.6407 1490.0
64.9248 1396.0
65.2089 1410.0
65.493 1360.0
65.7771 1441.0
66.0611 1410.0
66.3452 1432.0
66.6293 1382.0
66.9134 1485.0
67.1975 1555.0
67.4816 1469.0
67.7657 1445.0
68.0498 1436.0
68.3339 1328.0
68.618 1340.0
68.9021 1299.0
69.1862 1377.0
69.4702 1364.0
69.7543 1290.0
70.0384 1308.0
70.3225 1342.0
70.6066 1469.0
70.8907 1338.0
71.1748 1357.0
71.4589 1322.0
71.743 1241.0
72.0271 1243.0
72.3112 1221.0
72.5952 1289.0
72.8793 1296.0
73.1634 1353.0
73.4475 1302.0
73.7316 1234.0
74.0157 1261.0
74.2998 1235.0
74.5839 1198.0
74.868 1202.0
75.1521 1071.0
75.4362 1225.0
75.7203 1224.0
76.0043 1193.0
76.2884 1209.0
76.5725 1215.0
76.8566 1085.0
77.1407 1121.0
77.4248 1083.0
77.7089 1054.0
77.993 1150.0
78.2771 1088.0
78.5612 1058.0
78.8453 1047.0
79.1294 1023.0
79.4134 991.0
79.6975 958.0
79.9816 1028.0
80.2657 950.0
80.5498 934.0
80.8339 959.0
81.118 904.0
81.4021 958.0
81.6862 911.0
81.9703 867.0
82.2544 857.0
82.5385 872.0
82.8225 872.0
83.1066 816.0
83.3907 890.0
83.6748 768.0
83.9589 835.0
84.243 814.0
84.5271 823.0
84.8112 791.0
85.0953 780.0
85.3794 810.0
85.6635 792.0
85.9476 803.0
86.2316 703.0
86.5157 765.0
86.7998 748.0
87.0839 743.0
87.368 752.0
87.6521 742.0
87.9362 756.0
88.2203 701.0
88.5044 710.0
88.7885 708.0
89.0726 770.0
89.3567 667.0
89.6407 724.0
89.9248 675.0
89.9583 658.0