File: code/XRD_Analysis/External Sources/Alex_SAPO/20230311_SAPO-18_230301_oldauto_d_calc550C.xy
4.98146 4375.0
5.26555 4080.0
5.54964 3882.0
5.83373 3605.0
6.11782 3481.0
6.40191 3369.0
6.68601 3152.0
6.9701 3001.0
7.25419 2806.0
7.53828 2763.0
7.82237 2702.0
8.10646 2746.0
8.39055 2678.0
8.67465 2593.0
8.95874 2797.0
9.24283 4316.0
9.52692 33287.0
9.81101 5389.0
10.0951 2908.0
10.3792 3306.0
10.6633 7275.0
10.9474 2964.0
11.2315 2403.0
11.5156 2199.0
11.7997 2153.0
12.0837 2123.0
12.3678 2143.0
12.6519 2403.0
12.936 8028.0
13.2201 2529.0
13.5042 3784.0
13.7883 2388.0
14.0724 2406.0
14.3565 1968.0
14.6406 2010.0
14.9247 2096.0
15.2088 2010.0
15.4928 1953.0
15.7769 2433.0
16.061 5667.0
16.3451 3697.0
16.6292 2870.0
16.9133 6604.0
17.1974 7146.0
17.4815 5224.0
17.7656 3036.0
18.0497 2544.0
18.3338 2482.0
18.6179 2466.0
18.9019 2604.0
19.186 4186.0
19.4701 2976.0
19.7542 4220.0
20.0383 4171.0
20.3224 4838.0
20.6065 7454.0
20.8906 5382.0
21.1747 5328.0
21.4588 10947.0
21.7429 15279.0
22.0269 4147.0
22.311 3500.0
22.5951 4152.0
22.8792 3733.0
23.1633 4548.0
23.4474 4043.0
23.7315 4742.0
24.0156 10601.0
24.2997 6321.0
24.5838 4050.0
24.8679 3786.0
25.152 4010.0
25.436 4524.0
25.7201 4333.0
26.0042 6835.0
26.2883 5722.0
26.5724 6484.0
26.8565 4044.0
27.1406 3792.0
27.4247 3872.0
27.7088 4410.0
27.9929 6205.0
28.277 7270.0
28.5611 4287.0
28.8451 3701.0
29.1292 3642.0
29.4133 3940.0
29.6974 4689.0
29.9815 5017.0
30.2656 5310.0
30.5497 5581.0
30.8338 6299.0
31.1179 9476.0
31.402 8266.0
31.6861 4780.0
31.9702 4527.0
32.2542 4428.0
32.5383 5238.0
32.8224 4603.0
33.1065 4699.0
33.3906 3480.0
33.6747 2811.0
33.9588 2755.0
34.2429 2456.0
34.527 2648.0
34.8111 2418.0
35.0952 2521.0
35.3793 2365.0
35.6633 2902.0
35.9474 2842.0
36.2315 2393.0
36.5156 2378.0
36.7997 2291.0
37.0838 1950.0
37.3679 1898.0
37.652 1889.0
37.9361 1766.0
38.2202 1805.0
38.5043 1806.0
38.7884 1864.0
39.0724 1895.0
39.3565 2049.0
39.6406 1905.0
39.9247 1803.0
40.2088 1782.0
40.4929 1827.0
40.777 1796.0
41.0611 1804.0
41.3452 1840.0
41.6293 1963.0
41.9134 1975.0
42.1975 1992.0
42.4815 1842.0
42.7656 1781.0
43.0497 1754.0
43.3338 2011.0
43.6179 1927.0
43.902 1885.0
44.1861 1839.0
44.4702 1942.0
44.7543 1740.0
45.0384 1775.0
45.3225 1762.0
45.6066 1706.0
45.8906 1762.0
46.1747 1707.0
46.4588 1928.0
46.7429 1862.0
47.027 1770.0
47.3111 1664.0
47.5952 1723.0
47.8793 1657.0
48.1634 2326.0
48.4475 1765.0
48.7316 1756.0
49.0156 1977.0
49.2997 2234.0
49.5838 2263.0
49.8679 1943.0
50.152 1922.0
50.4361 1964.0
50.7202 1936.0
51.0043 1948.0
51.2884 1922.0
51.5725 1848.0
51.8566 1712.0
52.1407 1778.0
52.4247 1701.0
52.7088 1692.0
52.9929 1675.0
53.277 1691.0
53.5611 1889.0
53.8452 1687.0
54.1293 1607.0
54.4134 1658.0
54.6975 1584.0
54.9816 1592.0
55.2657 1645.0
55.5498 1834.0
55.8338 1836.0
56.1179 1895.0
56.402 1807.0
56.6861 1818.0
56.9702 1651.0
57.2543 1608.0
57.5384 1462.0
57.8225 1412.0
58.1066 1553.0
58.3907 1500.0
58.6748 1473.0
58.9589 1446.0
59.2429 1439.0
59.527 1624.0
59.8111 1854.0
60.0952 1545.0
60.3793 1477.0
60.6634 1447.0
60.9475 1427.0
61.2316 1513.0
61.5157 1651.0
61.7998 1459.0
62.0839 1432.0
62.368 1383.0
62.652 1400.0
62.9361 1393.0
63.2202 1322.0
63.5043 1380.0
63.7884 1444.0
64.0725 1514.0
64.3566 1458.0
64.6407 1513.0
64.9248 1498.0
65.2089 1451.0
65.493 1367.0
65.7771 1455.0
66.0611 1460.0
66.3452 1421.0
66.6293 1380.0
66.9134 1459.0
67.1975 1520.0
67.4816 1521.0
67.7657 1546.0
68.0498 1478.0
68.3339 1312.0
68.618 1390.0
68.9021 1482.0
69.1862 1397.0
69.4702 1408.0
69.7543 1407.0
70.0384 1331.0
70.3225 1399.0
70.6066 1447.0
70.8907 1404.0
71.1748 1373.0
71.4589 1275.0
71.743 1275.0
72.0271 1353.0
72.3112 1267.0
72.5952 1306.0
72.8793 1333.0
73.1634 1458.0
73.4475 1309.0
73.7316 1250.0
74.0157 1183.0
74.2998 1244.0
74.5839 1204.0
74.868 1132.0
75.1521 1227.0
75.4362 1156.0
75.7203 1191.0
76.0043 1149.0
76.2884 1178.0
76.5725 1093.0
76.8566 1099.0
77.1407 1079.0
77.4248 1084.0
77.7089 1081.0
77.993 1066.0
78.2771 1055.0
78.5612 1109.0
78.8453 1081.0
79.1294 1070.0
79.4134 1036.0
79.6975 1041.0
79.9816 1035.0
80.2657 1083.0
80.5498 1018.0
80.8339 1004.0
81.118 1090.0
81.4021 970.0
81.6862 990.0
81.9703 959.0
82.2544 843.0
82.5385 882.0
82.8225 874.0
83.1066 893.0
83.3907 770.0
83.6748 837.0
83.9589 832.0
84.243 826.0
84.5271 814.0
84.8112 844.0
85.0953 809.0
85.3794 757.0
85.6635 767.0
85.9476 785.0
86.2316 765.0
86.5157 738.0
86.7998 726.0
87.0839 784.0
87.368 723.0
87.6521 708.0
87.9362 731.0
88.2203 868.0
88.5044 822.0
88.7885 686.0
89.0726 655.0
89.3567 662.0
89.6407 683.0
89.9248 663.0
89.9583 649.0