File: code/XRD_Analysis/External Sources/Alex_SAPO/20230311_SAPO-18_230301_oldaouto_c_calc550c.xy
4.98146 4391.0
5.26555 4083.0
5.54964 3757.0
5.83373 3632.0
6.11782 3414.0
6.40191 3407.0
6.68601 3117.0
6.9701 3070.0
7.25419 2882.0
7.53828 2786.0
7.82237 2744.0
8.10646 2680.0
8.39055 2600.0
8.67465 2666.0
8.95874 2687.0
9.24283 4404.0
9.52692 29957.0
9.81101 5530.0
10.0951 3151.0
10.3792 3364.0
10.6633 6531.0
10.9474 2994.0
11.2315 2380.0
11.5156 2220.0
11.7997 2081.0
12.0837 2098.0
12.3678 2147.0
12.6519 2468.0
12.936 7236.0
13.2201 2431.0
13.5042 3665.0
13.7883 2486.0
14.0724 2248.0
14.3565 2015.0
14.6406 1999.0
14.9247 2028.0
15.2088 1960.0
15.4928 2032.0
15.7769 2394.0
16.061 5235.0
16.3451 3696.0
16.6292 2872.0
16.9133 6579.0
17.1974 6836.0
17.4815 4723.0
17.7656 3007.0
18.0497 2548.0
18.3338 2491.0
18.6179 2325.0
18.9019 2632.0
19.186 3852.0
19.4701 2993.0
19.7542 4049.0
20.0383 4264.0
20.3224 5847.0
20.6065 7662.0
20.8906 5470.0
21.1747 5622.0
21.4588 11167.0
21.7429 4901.0
22.0269 3678.0
22.311 3735.0
22.5951 4175.0
22.8792 3970.0
23.1633 4408.0
23.4474 4083.0
23.7315 4840.0
24.0156 9536.0
24.2997 6055.0
24.5838 4005.0
24.8679 3582.0
25.152 3751.0
25.436 4231.0
25.7201 4397.0
26.0042 6563.0
26.2883 5869.0
26.5724 6158.0
26.8565 4056.0
27.1406 3847.0
27.4247 3776.0
27.7088 4173.0
27.9929 5605.0
28.277 5584.0
28.5611 4041.0
28.8451 3688.0
29.1292 3693.0
29.4133 3989.0
29.6974 4717.0
29.9815 4870.0
30.2656 5133.0
30.5497 5322.0
30.8338 6154.0
31.1179 7844.0
31.402 7366.0
31.6861 4680.0
31.9702 4470.0
32.2542 4202.0
32.5383 4791.0
32.8224 4436.0
33.1065 4244.0
33.3906 3385.0
33.6747 2949.0
33.9588 2839.0
34.2429 2453.0
34.527 2665.0
34.8111 2394.0
35.0952 2570.0
35.3793 2597.0
35.6633 2626.0
35.9474 2291.0
36.2315 2300.0
36.5156 2256.0
36.7997 2122.0
37.0838 1975.0
37.3679 1860.0
37.652 1877.0
37.9361 1769.0
38.2202 1799.0
38.5043 1729.0
38.7884 1728.0
39.0724 1906.0
39.3565 1950.0
39.6406 1959.0
39.9247 1815.0
40.2088 1668.0
40.4929 1824.0
40.777 1749.0
41.0611 1820.0
41.3452 1848.0
41.6293 1799.0
41.9134 1868.0
42.1975 1787.0
42.4815 1783.0
42.7656 1783.0
43.0497 1800.0
43.3338 1863.0
43.6179 1945.0
43.902 1866.0
44.1861 1807.0
44.4702 1721.0
44.7543 1735.0
45.0384 1752.0
45.3225 1691.0
45.6066 1624.0
45.8906 1641.0
46.1747 1677.0
46.4588 1639.0
46.7429 1562.0
47.027 1583.0
47.3111 1611.0
47.5952 1644.0
47.8793 1577.0
48.1634 1604.0
48.4475 1593.0
48.7316 1623.0
49.0156 1911.0
49.2997 2059.0
49.5838 2019.0
49.8679 1976.0
50.152 1869.0
50.4361 1849.0
50.7202 1901.0
51.0043 1856.0
51.2884 1829.0
51.5725 1768.0
51.8566 1686.0
52.1407 1677.0
52.4247 1664.0
52.7088 1636.0
52.9929 1568.0
53.277 1676.0
53.5611 1723.0
53.8452 1614.0
54.1293 1568.0
54.4134 1629.0
54.6975 1598.0
54.9816 1538.0
55.2657 1507.0
55.5498 1736.0
55.8338 1769.0
56.1179 1759.0
56.402 1697.0
56.6861 1642.0
56.9702 1578.0
57.2543 1438.0
57.5384 1376.0
57.8225 1397.0
58.1066 1457.0
58.3907 1443.0
58.6748 1428.0
58.9589 1380.0
59.2429 1370.0
59.527 1495.0
59.8111 1529.0
60.0952 1520.0
60.3793 1455.0
60.6634 1463.0
60.9475 1448.0
61.2316 1373.0
61.5157 1384.0
61.7998 1376.0
62.0839 1343.0
62.368 1344.0
62.652 1351.0
62.9361 1357.0
63.2202 1377.0
63.5043 1406.0
63.7884 1443.0
64.0725 1382.0
64.3566 1378.0
64.6407 1375.0
64.9248 1310.0
65.2089 1394.0
65.493 1244.0
65.7771 1326.0
66.0611 1370.0
66.3452 1363.0
66.6293 1359.0
66.9134 1433.0
67.1975 1428.0
67.4816 1376.0
67.7657 1319.0
68.0498 1313.0
68.3339 1267.0
68.618 1254.0
68.9021 1265.0
69.1862 1285.0
69.4702 1317.0
69.7543 1290.0
70.0384 1297.0
70.3225 1327.0
70.6066 1408.0
70.8907 1327.0
71.1748 1292.0
71.4589 1259.0
71.743 1152.0
72.0271 1264.0
72.3112 1266.0
72.5952 1237.0
72.8793 1239.0
73.1634 1241.0
73.4475 1169.0
73.7316 1156.0
74.0157 1145.0
74.2998 1132.0
74.5839 1156.0
74.868 1200.0
75.1521 1129.0
75.4362 1104.0
75.7203 1114.0
76.0043 1139.0
76.2884 1148.0
76.5725 1132.0
76.8566 1135.0
77.1407 1112.0
77.4248 1029.0
77.7089 1036.0
77.993 992.0
78.2771 1063.0
78.5612 1049.0
78.8453 1014.0
79.1294 1033.0
79.4134 992.0
79.6975 981.0
79.9816 965.0
80.2657 927.0
80.5498 954.0
80.8339 906.0
81.118 933.0
81.4021 892.0
81.6862 915.0
81.9703 909.0
82.2544 846.0
82.5385 809.0
82.8225 842.0
83.1066 841.0
83.3907 843.0
83.6748 840.0
83.9589 796.0
84.243 787.0
84.5271 701.0
84.8112 767.0
85.0953 743.0
85.3794 786.0
85.6635 731.0
85.9476 774.0
86.2316 708.0
86.5157 754.0
86.7998 678.0
87.0839 727.0
87.368 712.0
87.6521 670.0
87.9362 650.0
88.2203 688.0
88.5044 734.0
88.7885 755.0
89.0726 705.0
89.3567 646.0
89.6407 664.0
89.9248 653.0
89.9583 702.0