File: code/XRD_Analysis/External Sources/Alex_SAPO/20230328_SAPO-18_230315_dirt_calc550C_4h.xy
4.98146 1524.0
5.26555 1529.0
5.54964 1409.0
5.83373 1307.0
6.11782 1267.0
6.40191 1206.0
6.68601 1081.0
6.9701 1048.0
7.25419 1007.0
7.53828 984.0
7.82237 971.0
8.10646 916.0
8.39055 886.0
8.67465 924.0
8.95874 930.0
9.24283 1432.0
9.52692 11114.0
9.81101 1820.0
10.0951 1031.0
10.3792 1001.0
10.6633 2497.0
10.9474 1051.0
11.2315 879.0
11.5156 732.0
11.7997 719.0
12.0837 692.0
12.3678 743.0
12.6519 831.0
12.936 2448.0
13.2201 914.0
13.5042 1252.0
13.7883 785.0
14.0724 867.0
14.3565 712.0
14.6406 632.0
14.9247 723.0
15.2088 681.0
15.4928 637.0
15.7769 852.0
16.061 1765.0
16.3451 1406.0
16.6292 985.0
16.9133 2204.0
17.1974 2532.0
17.4815 1806.0
17.7656 1021.0
18.0497 932.0
18.3338 845.0
18.6179 869.0
18.9019 928.0
19.186 1553.0
19.4701 1102.0
19.7542 1548.0
20.0383 1588.0
20.3224 1786.0
20.6065 2240.0
20.8906 2083.0
21.1747 1769.0
21.4588 3384.0
21.7429 1921.0
22.0269 1275.0
22.311 1234.0
22.5951 1448.0
22.8792 1400.0
23.1633 1542.0
23.4474 1489.0
23.7315 1641.0
24.0156 3447.0
24.2997 2384.0
24.5838 1410.0
24.8679 1375.0
25.152 1366.0
25.436 1518.0
25.7201 1499.0
26.0042 2136.0
26.2883 2097.0
26.5724 2160.0
26.8565 1346.0
27.1406 1361.0
27.4247 1343.0
27.7088 1505.0
27.9929 2066.0
28.277 1886.0
28.5611 1412.0
28.8451 1259.0
29.1292 1195.0
29.4133 1347.0
29.6974 1603.0
29.9815 1621.0
30.2656 1830.0
30.5497 1938.0
30.8338 1928.0
31.1179 2618.0
31.402 2692.0
31.6861 1557.0
31.9702 1465.0
32.2542 1522.0
32.5383 1794.0
32.8224 1549.0
33.1065 1464.0
33.3906 1079.0
33.6747 944.0
33.9588 988.0
34.2429 907.0
34.527 868.0
34.8111 816.0
35.0952 867.0
35.3793 836.0
35.6633 871.0
35.9474 839.0
36.2315 836.0
36.5156 845.0
36.7997 839.0
37.0838 747.0
37.3679 683.0
37.652 637.0
37.9361 618.0
38.2202 647.0
38.5043 636.0
38.7884 638.0
39.0724 682.0
39.3565 720.0
39.6406 656.0
39.9247 634.0
40.2088 648.0
40.4929 633.0
40.777 641.0
41.0611 629.0
41.3452 680.0
41.6293 704.0
41.9134 631.0
42.1975 690.0
42.4815 627.0
42.7656 605.0
43.0497 696.0
43.3338 692.0
43.6179 678.0
43.902 664.0
44.1861 630.0
44.4702 584.0
44.7543 629.0
45.0384 644.0
45.3225 615.0
45.6066 575.0
45.8906 615.0
46.1747 567.0
46.4588 580.0
46.7429 590.0
47.027 588.0
47.3111 594.0
47.5952 570.0
47.8793 586.0
48.1634 547.0
48.4475 569.0
48.7316 573.0
49.0156 719.0
49.2997 781.0
49.5838 806.0
49.8679 678.0
50.152 680.0
50.4361 672.0
50.7202 639.0
51.0043 672.0
51.2884 676.0
51.5725 656.0
51.8566 607.0
52.1407 594.0
52.4247 555.0
52.7088 539.0
52.9929 585.0
53.277 556.0
53.5611 564.0
53.8452 565.0
54.1293 563.0
54.4134 563.0
54.6975 585.0
54.9816 553.0
55.2657 557.0
55.5498 662.0
55.8338 638.0
56.1179 669.0
56.402 581.0
56.6861 642.0
56.9702 503.0
57.2543 560.0
57.5384 502.0
57.8225 525.0
58.1066 533.0
58.3907 502.0
58.6748 510.0
58.9589 504.0
59.2429 520.0
59.527 584.0
59.8111 542.0
60.0952 525.0
60.3793 524.0
60.6634 518.0
60.9475 505.0
61.2316 510.0
61.5157 532.0
61.7998 537.0
62.0839 501.0
62.368 491.0
62.652 506.0
62.9361 442.0
63.2202 520.0
63.5043 506.0
63.7884 509.0
64.0725 504.0
64.3566 493.0
64.6407 470.0
64.9248 477.0
65.2089 467.0
65.493 524.0
65.7771 447.0
66.0611 472.0
66.3452 536.0
66.6293 512.0
66.9134 524.0
67.1975 597.0
67.4816 542.0
67.7657 487.0
68.0498 491.0
68.3339 517.0
68.618 458.0
68.9021 500.0
69.1862 438.0
69.4702 472.0
69.7543 508.0
70.0384 513.0
70.3225 543.0
70.6066 502.0
70.8907 464.0
71.1748 505.0
71.4589 470.0
71.743 456.0
72.0271 444.0
72.3112 436.0
72.5952 471.0
72.8793 460.0
73.1634 488.0
73.4475 441.0
73.7316 443.0
74.0157 404.0
74.2998 399.0
74.5839 386.0
74.868 418.0
75.1521 434.0
75.4362 377.0
75.7203 384.0
76.0043 407.0
76.2884 394.0
76.5725 422.0
76.8566 378.0
77.1407 398.0
77.4248 362.0
77.7089 367.0
77.993 375.0
78.2771 384.0
78.5612 351.0
78.8453 379.0
79.1294 373.0
79.4134 361.0
79.6975 315.0
79.9816 315.0
80.2657 334.0
80.5498 340.0
80.8339 347.0
81.118 357.0
81.4021 302.0
81.6862 317.0
81.9703 322.0
82.2544 299.0
82.5385 275.0
82.8225 321.0
83.1066 303.0
83.3907 287.0
83.6748 294.0
83.9589 279.0
84.243 322.0
84.5271 284.0
84.8112 284.0
85.0953 238.0
85.3794 284.0
85.6635 266.0
85.9476 278.0
86.2316 290.0
86.5157 285.0
86.7998 258.0
87.0839 262.0
87.368 253.0
87.6521 250.0
87.9362 228.0
88.2203 263.0
88.5044 257.0
88.7885 247.0
89.0726 242.0
89.3567 252.0
89.6407 212.0
89.9248 250.0
89.9415 246.0