File: code/XRD_Analysis/External Sources/Alex_SAPO/20230328_SAPO-18_230315_clean_calc550C_4h.xy
4.98146 1493.0
5.26555 1404.0
5.54964 1320.0
5.83373 1193.0
6.11782 1129.0
6.40191 1128.0
6.68601 979.0
6.9701 1003.0
7.25419 1022.0
7.53828 909.0
7.82237 930.0
8.10646 868.0
8.39055 857.0
8.67465 844.0
8.95874 889.0
9.24283 1281.0
9.52692 8881.0
9.81101 1730.0
10.0951 958.0
10.3792 943.0
10.6633 2223.0
10.9474 926.0
11.2315 737.0
11.5156 680.0
11.7997 632.0
12.0837 599.0
12.3678 645.0
12.6519 738.0
12.936 2022.0
13.2201 826.0
13.5042 1118.0
13.7883 748.0
14.0724 747.0
14.3565 609.0
14.6406 651.0
14.9247 665.0
15.2088 625.0
15.4928 627.0
15.7769 662.0
16.061 1412.0
16.3451 1203.0
16.6292 841.0
16.9133 1938.0
17.1974 2199.0
17.4815 1574.0
17.7656 908.0
18.0497 847.0
18.3338 775.0
18.6179 806.0
18.9019 774.0
19.186 1323.0
19.4701 930.0
19.7542 1333.0
20.0383 1256.0
20.3224 1385.0
20.6065 1870.0
20.8906 1755.0
21.1747 1428.0
21.4588 2556.0
21.7429 1371.0
22.0269 1060.0
22.311 1097.0
22.5951 1163.0
22.8792 1169.0
23.1633 1283.0
23.4474 1257.0
23.7315 1492.0
24.0156 3113.0
24.2997 1855.0
24.5838 1271.0
24.8679 1236.0
25.152 1154.0
25.436 1340.0
25.7201 1350.0
26.0042 1929.0
26.2883 1918.0
26.5724 1884.0
26.8565 1226.0
27.1406 1130.0
27.4247 1095.0
27.7088 1308.0
27.9929 1809.0
28.277 1546.0
28.5611 1226.0
28.8451 1082.0
29.1292 1076.0
29.4133 1146.0
29.6974 1306.0
29.9815 1450.0
30.2656 1614.0
30.5497 1744.0
30.8338 1867.0
31.1179 2469.0
31.402 2380.0
31.6861 1497.0
31.9702 1286.0
32.2542 1449.0
32.5383 1537.0
32.8224 1446.0
33.1065 1325.0
33.3906 1009.0
33.6747 911.0
33.9588 902.0
34.2429 794.0
34.527 825.0
34.8111 788.0
35.0952 700.0
35.3793 734.0
35.6633 691.0
35.9474 672.0
36.2315 694.0
36.5156 763.0
36.7997 724.0
37.0838 612.0
37.3679 574.0
37.652 560.0
37.9361 537.0
38.2202 528.0
38.5043 564.0
38.7884 541.0
39.0724 616.0
39.3565 656.0
39.6406 579.0
39.9247 581.0
40.2088 594.0
40.4929 550.0
40.777 545.0
41.0611 533.0
41.3452 569.0
41.6293 644.0
41.9134 585.0
42.1975 558.0
42.4815 539.0
42.7656 568.0
43.0497 601.0
43.3338 641.0
43.6179 585.0
43.902 561.0
44.1861 533.0
44.4702 596.0
44.7543 517.0
45.0384 539.0
45.3225 523.0
45.6066 513.0
45.8906 509.0
46.1747 508.0
46.4588 526.0
46.7429 538.0
47.027 451.0
47.3111 518.0
47.5952 514.0
47.8793 454.0
48.1634 539.0
48.4475 500.0
48.7316 521.0
49.0156 646.0
49.2997 762.0
49.5838 691.0
49.8679 618.0
50.152 605.0
50.4361 639.0
50.7202 633.0
51.0043 615.0
51.2884 625.0
51.5725 554.0
51.8566 523.0
52.1407 554.0
52.4247 560.0
52.7088 520.0
52.9929 569.0
53.277 522.0
53.5611 561.0
53.8452 517.0
54.1293 483.0
54.4134 492.0
54.6975 532.0
54.9816 509.0
55.2657 523.0
55.5498 600.0
55.8338 654.0
56.1179 544.0
56.402 539.0
56.6861 501.0
56.9702 493.0
57.2543 480.0
57.5384 427.0
57.8225 426.0
58.1066 448.0
58.3907 449.0
58.6748 474.0
58.9589 494.0
59.2429 513.0
59.527 531.0
59.8111 548.0
60.0952 483.0
60.3793 451.0
60.6634 491.0
60.9475 513.0
61.2316 459.0
61.5157 524.0
61.7998 489.0
62.0839 479.0
62.368 432.0
62.652 445.0
62.9361 486.0
63.2202 447.0
63.5043 446.0
63.7884 522.0
64.0725 506.0
64.3566 456.0
64.6407 450.0
64.9248 467.0
65.2089 443.0
65.493 444.0
65.7771 462.0
66.0611 438.0
66.3452 487.0
66.6293 513.0
66.9134 529.0
67.1975 560.0
67.4816 493.0
67.7657 473.0
68.0498 427.0
68.3339 402.0
68.618 399.0
68.9021 391.0
69.1862 449.0
69.4702 455.0
69.7543 412.0
70.0384 502.0
70.3225 512.0
70.6066 467.0
70.8907 501.0
71.1748 444.0
71.4589 430.0
71.743 420.0
72.0271 425.0
72.3112 439.0
72.5952 414.0
72.8793 444.0
73.1634 449.0
73.4475 401.0
73.7316 385.0
74.0157 416.0
74.2998 369.0
74.5839 407.0
74.868 380.0
75.1521 389.0
75.4362 414.0
75.7203 382.0
76.0043 407.0
76.2884 376.0
76.5725 365.0
76.8566 380.0
77.1407 325.0
77.4248 375.0
77.7089 356.0
77.993 386.0
78.2771 353.0
78.5612 375.0
78.8453 345.0
79.1294 338.0
79.4134 326.0
79.6975 316.0
79.9816 294.0
80.2657 330.0
80.5498 326.0
80.8339 351.0
81.118 307.0
81.4021 313.0
81.6862 292.0
81.9703 298.0
82.2544 350.0
82.5385 328.0
82.8225 306.0
83.1066 267.0
83.3907 276.0
83.6748 299.0
83.9589 300.0
84.243 295.0
84.5271 283.0
84.8112 269.0
85.0953 283.0
85.3794 294.0
85.6635 272.0
85.9476 227.0
86.2316 245.0
86.5157 247.0
86.7998 251.0
87.0839 261.0
87.368 262.0
87.6521 223.0
87.9362 223.0
88.2203 237.0
88.5044 250.0
88.7885 241.0
89.0726 221.0
89.3567 230.0
89.6407 242.0
89.9248 226.0
89.9415 204.0