File: code/XRD_Analysis/External Sources/Alex_SAPO/20230107_SAPO-18_230105_2_calc550C.xy
4.98146 1516.0
5.26555 1491.0
5.54964 1336.0
5.83373 1293.0
6.11782 1204.0
6.40191 1137.0
6.68601 1204.0
6.9701 1035.0
7.25419 1044.0
7.53828 980.0
7.82237 997.0
8.10646 866.0
8.39055 982.0
8.67465 949.0
8.95874 1000.0
9.24283 1605.0
9.52692 11674.0
9.81101 1700.0
10.0951 1045.0
10.3792 1135.0
10.6633 2497.0
10.9474 1048.0
11.2315 857.0
11.5156 748.0
11.7997 774.0
12.0837 734.0
12.3678 728.0
12.6519 842.0
12.936 2695.0
13.2201 866.0
13.5042 1269.0
13.7883 821.0
14.0724 850.0
14.3565 708.0
14.6406 713.0
14.9247 700.0
15.2088 699.0
15.4928 767.0
15.7769 854.0
16.061 1953.0
16.3451 1158.0
16.6292 1078.0
16.9133 2318.0
17.1974 2413.0
17.4815 1691.0
17.7656 1002.0
18.0497 849.0
18.3338 861.0
18.6179 857.0
18.9019 974.0
19.186 1335.0
19.4701 1045.0
19.7542 1486.0
20.0383 1428.0
20.3224 1464.0
20.6065 2284.0
20.8906 1645.0
21.1747 1646.0
21.4588 2789.0
21.7429 1320.0
22.0269 1193.0
22.311 1126.0
22.5951 1472.0
22.8792 1307.0
23.1633 1548.0
23.4474 1409.0
23.7315 1769.0
24.0156 3662.0
24.2997 2079.0
24.5838 1412.0
24.8679 1333.0
25.152 1329.0
25.436 1555.0
25.7201 1536.0
26.0042 2391.0
26.2883 2026.0
26.5724 2249.0
26.8565 1462.0
27.1406 1413.0
27.4247 1456.0
27.7088 1540.0
27.9929 2179.0
28.277 2031.0
28.5611 1490.0
28.8451 1345.0
29.1292 1398.0
29.4133 1488.0
29.6974 1723.0
29.9815 1828.0
30.2656 1824.0
30.5497 1989.0
30.8338 2174.0
31.1179 2964.0
31.402 2559.0
31.6861 1714.0
31.9702 1671.0
32.2542 1625.0
32.5383 1791.0
32.8224 1615.0
33.1065 1679.0
33.3906 1215.0
33.6747 1070.0
33.9588 1033.0
34.2429 935.0
34.527 948.0
34.8111 869.0
35.0952 879.0
35.3793 779.0
35.6633 795.0
35.9474 799.0
36.2315 817.0
36.5156 884.0
36.7997 720.0
37.0838 739.0
37.3679 706.0
37.652 652.0
37.9361 656.0
38.2202 680.0
38.5043 620.0
38.7884 679.0
39.0724 682.0
39.3565 717.0
39.6406 714.0
39.9247 648.0
40.2088 637.0
40.4929 690.0
40.777 704.0
41.0611 693.0
41.3452 684.0
41.6293 706.0
41.9134 697.0
42.1975 659.0
42.4815 619.0
42.7656 633.0
43.0497 637.0
43.3338 731.0
43.6179 708.0
43.902 663.0
44.1861 667.0
44.4702 673.0
44.7543 649.0
45.0384 623.0
45.3225 657.0
45.6066 632.0
45.8906 627.0
46.1747 616.0
46.4588 588.0
46.7429 604.0
47.027 563.0
47.3111 616.0
47.5952 602.0
47.8793 614.0
48.1634 600.0
48.4475 621.0
48.7316 597.0
49.0156 732.0
49.2997 788.0
49.5838 801.0
49.8679 699.0
50.152 673.0
50.4361 689.0
50.7202 641.0
51.0043 742.0
51.2884 619.0
51.5725 659.0
51.8566 651.0
52.1407 622.0
52.4247 559.0
52.7088 637.0
52.9929 659.0
53.277 601.0
53.5611 563.0
53.8452 667.0
54.1293 623.0
54.4134 594.0
54.6975 587.0
54.9816 564.0
55.2657 522.0
55.5498 636.0
55.8338 635.0
56.1179 596.0
56.402 619.0
56.6861 596.0
56.9702 598.0
57.2543 576.0
57.5384 571.0
57.8225 488.0
58.1066 511.0
58.3907 506.0
58.6748 495.0
58.9589 520.0
59.2429 550.0
59.527 575.0
59.8111 604.0
60.0952 545.0
60.3793 493.0
60.6634 558.0
60.9475 537.0
61.2316 504.0
61.5157 538.0
61.7998 547.0
62.0839 521.0
62.368 488.0
62.652 506.0
62.9361 502.0
63.2202 525.0
63.5043 538.0
63.7884 534.0
64.0725 543.0
64.3566 481.0
64.6407 504.0
64.9248 507.0
65.2089 554.0
65.493 514.0
65.7771 467.0
66.0611 483.0
66.3452 533.0
66.6293 492.0
66.9134 567.0
67.1975 541.0
67.4816 570.0
67.7657 538.0
68.0498 489.0
68.3339 520.0
68.618 492.0
68.9021 496.0
69.1862 481.0
69.4702 450.0
69.7543 451.0
70.0384 456.0
70.3225 492.0
70.6066 493.0
70.8907 528.0
71.1748 480.0
71.4589 477.0
71.743 450.0
72.0271 434.0
72.3112 446.0
72.5952 439.0
72.8793 424.0
73.1634 456.0
73.4475 412.0
73.7316 442.0
74.0157 435.0
74.2998 409.0
74.5839 404.0
74.868 403.0
75.1521 422.0
75.4362 474.0
75.7203 420.0
76.0043 431.0
76.2884 411.0
76.5725 450.0
76.8566 401.0
77.1407 392.0
77.4248 371.0
77.7089 336.0
77.993 407.0
78.2771 384.0
78.5612 358.0
78.8453 400.0
79.1294 375.0
79.4134 368.0
79.6975 334.0
79.9816 355.0
80.2657 372.0
80.5498 351.0
80.8339 344.0
81.118 363.0
81.4021 353.0
81.6862 332.0
81.9703 313.0
82.2544 324.0
82.5385 320.0
82.8225 322.0
83.1066 318.0
83.3907 308.0
83.6748 329.0
83.9589 304.0
84.243 280.0
84.5271 294.0
84.8112 283.0
85.0953 273.0
85.3794 258.0
85.6635 292.0
85.9476 270.0
86.2316 276.0
86.5157 261.0
86.7998 252.0
87.0839 242.0
87.368 243.0
87.6521 257.0
87.9362 272.0
88.2203 270.0
88.5044 243.0
88.7885 222.0
89.0726 263.0
89.3567 238.0
89.6407 275.0
89.9248 267.0
89.9415 251.0