File: code/XRD_Analysis/External Sources/Alex_SAPO/20230107_SAPO-18_230105_1_calc550C.xy
4.98146 1515.0
5.26555 1454.0
5.54964 1337.0
5.83373 1246.0
6.11782 1229.0
6.40191 1137.0
6.68601 1064.0
6.9701 1109.0
7.25419 1069.0
7.53828 1011.0
7.82237 948.0
8.10646 982.0
8.39055 945.0
8.67465 966.0
8.95874 974.0
9.24283 1388.0
9.52692 9442.0
9.81101 2665.0
10.0951 1038.0
10.3792 1093.0
10.6633 2415.0
10.9474 1267.0
11.2315 857.0
11.5156 825.0
11.7997 726.0
12.0837 762.0
12.3678 762.0
12.6519 818.0
12.936 2414.0
13.2201 993.0
13.5042 1224.0
13.7883 944.0
14.0724 931.0
14.3565 709.0
14.6406 726.0
14.9247 734.0
15.2088 750.0
15.4928 680.0
15.7769 873.0
16.061 1588.0
16.3451 1590.0
16.6292 1083.0
16.9133 1950.0
17.1974 2706.0
17.4815 1990.0
17.7656 1236.0
18.0497 988.0
18.3338 869.0
18.6179 866.0
18.9019 942.0
19.186 1576.0
19.4701 1096.0
19.7542 1493.0
20.0383 1362.0
20.3224 1628.0
20.6065 2011.0
20.8906 2130.0
21.1747 1571.0
21.4588 2559.0
21.7429 1757.0
22.0269 1216.0
22.311 1199.0
22.5951 1395.0
22.8792 1300.0
23.1633 1427.0
23.4474 1453.0
23.7315 1661.0
24.0156 3471.0
24.2997 2588.0
24.5838 1581.0
24.8679 1430.0
25.152 1429.0
25.436 1673.0
25.7201 1589.0
26.0042 2247.0
26.2883 2106.0
26.5724 2399.0
26.8565 1612.0
27.1406 1485.0
27.4247 1441.0
27.7088 1566.0
27.9929 2098.0
28.277 2081.0
28.5611 1515.0
28.8451 1439.0
29.1292 1309.0
29.4133 1520.0
29.6974 1737.0
29.9815 1796.0
30.2656 2039.0
30.5497 1970.0
30.8338 2258.0
31.1179 2735.0
31.402 2910.0
31.6861 1824.0
31.9702 1727.0
32.2542 1586.0
32.5383 1935.0
32.8224 1694.0
33.1065 1654.0
33.3906 1332.0
33.6747 1051.0
33.9588 1021.0
34.2429 988.0
34.527 1011.0
34.8111 885.0
35.0952 901.0
35.3793 831.0
35.6633 839.0
35.9474 808.0
36.2315 864.0
36.5156 862.0
36.7997 767.0
37.0838 739.0
37.3679 676.0
37.652 688.0
37.9361 674.0
38.2202 698.0
38.5043 684.0
38.7884 676.0
39.0724 679.0
39.3565 782.0
39.6406 694.0
39.9247 675.0
40.2088 645.0
40.4929 669.0
40.777 645.0
41.0611 631.0
41.3452 714.0
41.6293 680.0
41.9134 744.0
42.1975 680.0
42.4815 614.0
42.7656 633.0
43.0497 638.0
43.3338 729.0
43.6179 716.0
43.902 679.0
44.1861 672.0
44.4702 630.0
44.7543 678.0
45.0384 626.0
45.3225 675.0
45.6066 651.0
45.8906 654.0
46.1747 595.0
46.4588 609.0
46.7429 613.0
47.027 643.0
47.3111 626.0
47.5952 594.0
47.8793 605.0
48.1634 607.0
48.4475 587.0
48.7316 654.0
49.0156 721.0
49.2997 793.0
49.5838 745.0
49.8679 708.0
50.152 730.0
50.4361 726.0
50.7202 738.0
51.0043 706.0
51.2884 679.0
51.5725 666.0
51.8566 595.0
52.1407 638.0
52.4247 637.0
52.7088 568.0
52.9929 627.0
53.277 621.0
53.5611 589.0
53.8452 590.0
54.1293 611.0
54.4134 584.0
54.6975 627.0
54.9816 583.0
55.2657 622.0
55.5498 648.0
55.8338 613.0
56.1179 616.0
56.402 604.0
56.6861 548.0
56.9702 584.0
57.2543 561.0
57.5384 518.0
57.8225 573.0
58.1066 564.0
58.3907 534.0
58.6748 551.0
58.9589 547.0
59.2429 551.0
59.527 601.0
59.8111 587.0
60.0952 631.0
60.3793 543.0
60.6634 527.0
60.9475 547.0
61.2316 551.0
61.5157 525.0
61.7998 595.0
62.0839 493.0
62.368 525.0
62.652 507.0
62.9361 523.0
63.2202 520.0
63.5043 521.0
63.7884 513.0
64.0725 508.0
64.3566 529.0
64.6407 536.0
64.9248 565.0
65.2089 527.0
65.493 523.0
65.7771 522.0
66.0611 473.0
66.3452 449.0
66.6293 492.0
66.9134 491.0
67.1975 604.0
67.4816 525.0
67.7657 519.0
68.0498 479.0
68.3339 503.0
68.618 466.0
68.9021 479.0
69.1862 521.0
69.4702 474.0
69.7543 482.0
70.0384 521.0
70.3225 505.0
70.6066 517.0
70.8907 540.0
71.1748 476.0
71.4589 463.0
71.743 410.0
72.0271 411.0
72.3112 461.0
72.5952 469.0
72.8793 454.0
73.1634 464.0
73.4475 428.0
73.7316 459.0
74.0157 446.0
74.2998 432.0
74.5839 436.0
74.868 471.0
75.1521 394.0
75.4362 451.0
75.7203 394.0
76.0043 408.0
76.2884 380.0
76.5725 413.0
76.8566 415.0
77.1407 428.0
77.4248 403.0
77.7089 377.0
77.993 383.0
78.2771 396.0
78.5612 366.0
78.8453 380.0
79.1294 373.0
79.4134 365.0
79.6975 344.0
79.9816 372.0
80.2657 363.0
80.5498 369.0
80.8339 341.0
81.118 346.0
81.4021 348.0
81.6862 345.0
81.9703 344.0
82.2544 337.0
82.5385 353.0
82.8225 318.0
83.1066 325.0
83.3907 332.0
83.6748 294.0
83.9589 318.0
84.243 267.0
84.5271 260.0
84.8112 273.0
85.0953 287.0
85.3794 287.0
85.6635 292.0
85.9476 284.0
86.2316 285.0
86.5157 269.0
86.7998 251.0
87.0839 239.0
87.368 252.0
87.6521 267.0
87.9362 235.0
88.2203 245.0
88.5044 253.0
88.7885 286.0
89.0726 251.0
89.3567 263.0
89.6407 242.0
89.9248 241.0
89.9415 256.0