File: code/XRD_Analysis/External Sources/Fabian/15022024_MCM-41.xy
4.98146 5780.0
5.26555 3710.0
5.54964 2733.0
5.83373 2526.0
6.11782 2343.0
6.40191 2622.0
6.68601 2162.0
6.9701 1961.0
7.25419 1779.0
7.53828 1659.0
7.82237 1539.0
8.10646 1445.0
8.39055 1367.0
8.67465 1254.0
8.95874 1237.0
9.24283 1180.0
9.52692 1119.0
9.81101 1103.0
10.0951 1042.0
10.3792 1031.0
10.6633 1031.0
10.9474 966.0
11.2315 920.0
11.5156 940.0
11.7997 848.0
12.0837 812.0
12.3678 842.0
12.6519 815.0
12.936 770.0
13.2201 826.0
13.5042 824.0
13.7883 819.0
14.0724 802.0
14.3565 854.0
14.6406 859.0
14.9247 826.0
15.2088 836.0
15.4928 888.0
15.7769 863.0
16.061 929.0
16.3451 923.0
16.6292 899.0
16.9133 993.0
17.1974 1020.0
17.4815 951.0
17.7656 1058.0
18.0497 1063.0
18.3338 1115.0
18.6179 1099.0
18.9019 1174.0
19.186 1271.0
19.4701 1164.0
19.7542 1331.0
20.0383 1390.0
20.3224 1353.0
20.6065 1424.0
20.8906 1489.0
21.1747 1474.0
21.4588 1445.0
21.7429 1510.0
22.0269 1615.0
22.311 1611.0
22.5951 1499.0
22.8792 1581.0
23.1633 1477.0
23.4474 1542.0
23.7315 1519.0
24.0156 1494.0
24.2997 1453.0
24.5838 1379.0
24.8679 1407.0
25.152 1340.0
25.436 1350.0
25.7201 1312.0
26.0042 1297.0
26.2883 1163.0
26.5724 1167.0
26.8565 1112.0
27.1406 1091.0
27.4247 1080.0
27.7088 1005.0
27.9929 948.0
28.277 945.0
28.5611 870.0
28.8451 909.0
29.1292 819.0
29.4133 819.0
29.6974 768.0
29.9815 808.0
30.2656 785.0
30.5497 739.0
30.8338 667.0
31.1179 662.0
31.402 697.0
31.6861 632.0
31.9702 654.0
32.2542 617.0
32.5383 597.0
32.8224 584.0
33.1065 585.0
33.3906 528.0
33.6747 569.0
33.9588 478.0
34.2429 533.0
34.527 478.0
34.8111 474.0
35.0952 480.0
35.3793 425.0
35.6633 436.0
35.9474 413.0
36.2315 412.0
36.5156 423.0
36.7997 387.0
37.0838 378.0
37.3679 396.0
37.652 396.0
37.9361 350.0
38.2202 367.0
38.5043 367.0
38.7884 364.0
39.0724 352.0
39.3565 328.0
39.6406 340.0
39.9247 358.0
40.2088 346.0
40.4929 342.0
40.777 292.0
41.0611 339.0
41.3452 353.0
41.6293 347.0
41.9134 317.0
42.1975 382.0
42.4815 375.0
42.7656 342.0
43.0497 313.0
43.3338 337.0
43.6179 333.0
43.902 330.0
44.1861 388.0
44.4702 329.0
44.7543 336.0
45.0384 338.0
45.3225 337.0
45.6066 315.0
45.8906 368.0
46.1747 319.0
46.4588 317.0
46.7429 338.0
47.027 298.0
47.3111 334.0
47.5952 336.0
47.8793 319.0
48.1634 322.0
48.4475 324.0
48.7316 303.0
49.0156 331.0
49.2997 293.0
49.5838 305.0
49.8679 316.0
50.152 292.0
50.4361 309.0
50.7202 284.0
51.0043 324.0
51.2884 290.0
51.5725 292.0
51.8566 321.0
52.1407 315.0
52.4247 299.0
52.7088 264.0
52.9929 326.0
53.277 315.0
53.5611 269.0
53.8452 270.0
54.1293 284.0
54.4134 287.0
54.6975 304.0
54.9816 282.0
55.2657 322.0
55.5498 266.0
55.8338 266.0
56.1179 271.0
56.402 293.0
56.6861 314.0
56.9702 271.0
57.2543 258.0
57.5384 286.0
57.8225 306.0
58.1066 261.0
58.3907 248.0
58.6748 250.0
58.9589 277.0
59.2429 290.0
59.527 288.0
59.8111 282.0
60.0952 288.0
60.3793 282.0
60.6634 277.0
60.9475 272.0
61.2316 287.0
61.5157 310.0
61.7998 273.0
62.0839 326.0
62.368 269.0
62.652 291.0
62.9361 290.0
63.2202 300.0
63.5043 269.0
63.7884 254.0
64.0725 285.0
64.3566 303.0
64.6407 317.0
64.9248 247.0
65.2089 298.0
65.493 286.0
65.7771 284.0
66.0611 282.0
66.3452 314.0
66.6293 291.0
66.9134 292.0
67.1975 284.0
67.4816 256.0
67.7657 286.0
68.0498 305.0
68.3339 269.0
68.618 292.0
68.9021 271.0
69.1862 271.0
69.4702 269.0
69.7543 270.0
70.0384 284.0
70.3225 293.0
70.6066 278.0
70.8907 320.0
71.1748 259.0
71.4589 255.0
71.743 274.0
72.0271 285.0
72.3112 282.0
72.5952 250.0
72.8793 289.0
73.1634 246.0
73.4475 266.0
73.7316 273.0
74.0157 284.0
74.2998 274.0
74.5839 288.0
74.868 279.0
75.1521 233.0
75.4362 229.0
75.7203 240.0
76.0043 253.0
76.2884 264.0
76.5725 255.0
76.8566 225.0
77.1407 237.0
77.4248 232.0
77.7089 221.0
77.993 221.0
78.2771 210.0
78.5612 276.0
78.8453 225.0
79.1294 226.0
79.4134 195.0
79.6975 208.0
79.9816 236.0
80.2657 216.0
80.5498 228.0
80.8339 220.0
81.118 205.0
81.4021 184.0
81.6862 203.0
81.9703 191.0
82.2544 181.0
82.5385 193.0
82.8225 158.0
83.1066 173.0
83.3907 178.0
83.6748 178.0
83.9589 161.0
84.243 161.0
84.5271 159.0
84.8112 176.0
85.0953 154.0
85.3794 147.0
85.6635 164.0
85.9476 165.0
86.2316 160.0
86.5157 153.0
86.7998 154.0
87.0839 151.0
87.368 127.0
87.6521 149.0
87.9362 131.0
88.2203 138.0
88.5044 146.0
88.7885 142.0
89.0726 118.0
89.3567 147.0
89.6407 112.0
89.9248 133.0
89.9415 125.0