File: code/XRD_Analysis/External Sources/Fabian/15022024_ZnZrOx_Syn2.xy
4.98146 996.0
5.26555 934.0
5.54964 939.0
5.83373 859.0
6.11782 850.0
6.40191 798.0
6.68601 713.0
6.9701 614.0
7.25419 668.0
7.53828 595.0
7.82237 594.0
8.10646 555.0
8.39055 548.0
8.67465 521.0
8.95874 489.0
9.24283 470.0
9.52692 479.0
9.81101 423.0
10.0951 465.0
10.3792 453.0
10.6633 397.0
10.9474 389.0
11.2315 378.0
11.5156 367.0
11.7997 351.0
12.0837 361.0
12.3678 339.0
12.6519 298.0
12.936 300.0
13.2201 301.0
13.5042 303.0
13.7883 279.0
14.0724 279.0
14.3565 272.0
14.6406 263.0
14.9247 294.0
15.2088 256.0
15.4928 256.0
15.7769 238.0
16.061 260.0
16.3451 209.0
16.6292 231.0
16.9133 193.0
17.1974 194.0
17.4815 204.0
17.7656 231.0
18.0497 192.0
18.3338 201.0
18.6179 212.0
18.9019 217.0
19.186 200.0
19.4701 188.0
19.7542 203.0
20.0383 210.0
20.3224 208.0
20.6065 195.0
20.8906 223.0
21.1747 217.0
21.4588 212.0
21.7429 196.0
22.0269 215.0
22.311 197.0
22.5951 238.0
22.8792 195.0
23.1633 212.0
23.4474 208.0
23.7315 242.0
24.0156 230.0
24.2997 224.0
24.5838 248.0
24.8679 237.0
25.152 263.0
25.436 294.0
25.7201 280.0
26.0042 279.0
26.2883 332.0
26.5724 292.0
26.8565 366.0
27.1406 386.0
27.4247 326.0
27.7088 417.0
27.9929 440.0
28.277 419.0
28.5611 466.0
28.8451 477.0
29.1292 575.0
29.4133 571.0
29.6974 654.0
29.9815 798.0
30.2656 1174.0
30.5497 2525.0
30.8338 1779.0
31.1179 963.0
31.402 762.0
31.6861 719.0
31.9702 725.0
32.2542 672.0
32.5383 682.0
32.8224 646.0
33.1065 668.0
33.3906 660.0
33.6747 604.0
33.9588 594.0
34.2429 520.0
34.527 520.0
34.8111 485.0
35.0952 559.0
35.3793 808.0
35.6633 706.0
35.9474 431.0
36.2315 335.0
36.5156 271.0
36.7997 254.0
37.0838 208.0
37.3679 228.0
37.652 215.0
37.9361 178.0
38.2202 167.0
38.5043 186.0
38.7884 191.0
39.0724 195.0
39.3565 184.0
39.6406 172.0
39.9247 177.0
40.2088 205.0
40.4929 174.0
40.777 174.0
41.0611 182.0
41.3452 215.0
41.6293 198.0
41.9134 251.0
42.1975 219.0
42.4815 221.0
42.7656 207.0
43.0497 215.0
43.3338 220.0
43.6179 254.0
43.902 273.0
44.1861 244.0
44.4702 239.0
44.7543 252.0
45.0384 255.0
45.3225 268.0
45.6066 268.0
45.8906 261.0
46.1747 274.0
46.4588 302.0
46.7429 269.0
47.027 295.0
47.3111 335.0
47.5952 285.0
47.8793 304.0
48.1634 322.0
48.4475 348.0
48.7316 349.0
49.0156 382.0
49.2997 392.0
49.5838 438.0
49.8679 494.0
50.152 501.0
50.4361 659.0
50.7202 1036.0
51.0043 1550.0
51.2884 1037.0
51.5725 567.0
51.8566 485.0
52.1407 426.0
52.4247 386.0
52.7088 422.0
52.9929 392.0
53.277 386.0
53.5611 394.0
53.8452 384.0
54.1293 363.0
54.4134 373.0
54.6975 403.0
54.9816 387.0
55.2657 352.0
55.5498 369.0
55.8338 377.0
56.1179 381.0
56.402 363.0
56.6861 367.0
56.9702 416.0
57.2543 369.0
57.5384 363.0
57.8225 342.0
58.1066 410.0
58.3907 353.0
58.6748 403.0
58.9589 407.0
59.2429 433.0
59.527 420.0
59.8111 525.0
60.0952 652.0
60.3793 946.0
60.6634 1201.0
60.9475 740.0
61.2316 498.0
61.5157 388.0
61.7998 358.0
62.0839 360.0
62.368 314.0
62.652 337.0
62.9361 356.0
63.2202 373.0
63.5043 439.0
63.7884 384.0
64.0725 282.0
64.3566 260.0
64.6407 295.0
64.9248 277.0
65.2089 294.0
65.493 247.0
65.7771 250.0
66.0611 219.0
66.3452 239.0
66.6293 240.0
66.9134 224.0
67.1975 194.0
67.4816 253.0
67.7657 247.0
68.0498 196.0
68.3339 248.0
68.618 240.0
68.9021 192.0
69.1862 190.0
69.4702 209.0
69.7543 192.0
70.0384 191.0
70.3225 196.0
70.6066 211.0
70.8907 169.0
71.1748 169.0
71.4589 213.0
71.743 173.0
72.0271 201.0
72.3112 153.0
72.5952 176.0
72.8793 191.0
73.1634 158.0
73.4475 183.0
73.7316 173.0
74.0157 196.0
74.2998 224.0
74.5839 233.0
74.868 282.0
75.1521 271.0
75.4362 191.0
75.7203 175.0
76.0043 153.0
76.2884 146.0
76.5725 149.0
76.8566 153.0
77.1407 152.0
77.4248 191.0
77.7089 155.0
77.993 159.0
78.2771 191.0
78.5612 180.0
78.8453 172.0
79.1294 151.0
79.4134 166.0
79.6975 159.0
79.9816 152.0
80.2657 180.0
80.5498 185.0
80.8339 176.0
81.118 212.0
81.4021 222.0
81.6862 227.0
81.9703 242.0
82.2544 268.0
82.5385 291.0
82.8225 380.0
83.1066 410.0
83.3907 267.0
83.6748 267.0
83.9589 216.0
84.243 241.0
84.5271 240.0
84.8112 228.0
85.0953 268.0
85.3794 280.0
85.6635 323.0
85.9476 300.0
86.2316 248.0
86.5157 214.0
86.7998 197.0
87.0839 193.0
87.368 196.0
87.6521 179.0
87.9362 190.0
88.2203 176.0
88.5044 174.0
88.7885 186.0
89.0726 155.0
89.3567 216.0
89.6407 200.0
89.9248 195.0
89.9415 178.0