File: code/XRD_Analysis/External Sources/Fabian/20240402_RUB-50_notcalc_lessmaterial.xy
4.98146 1267.0
5.26555 1114.0
5.54964 1082.0
5.83373 1075.0
6.11782 1153.0
6.40191 1353.0
6.68601 1914.0
6.9701 1663.0
7.25419 2590.0
7.53828 951.0
7.82237 1070.0
8.10646 1435.0
8.39055 1502.0
8.67465 1494.0
8.95874 1468.0
9.24283 1334.0
9.52692 1244.0
9.81101 1076.0
10.0951 865.0
10.3792 747.0
10.6633 648.0
10.9474 520.0
11.2315 532.0
11.5156 459.0
11.7997 462.0
12.0837 463.0
12.3678 513.0
12.6519 557.0
12.936 663.0
13.2201 669.0
13.5042 710.0
13.7883 590.0
14.0724 549.0
14.3565 656.0
14.6406 704.0
14.9247 627.0
15.2088 602.0
15.4928 607.0
15.7769 629.0
16.061 615.0
16.3451 570.0
16.6292 539.0
16.9133 488.0
17.1974 456.0
17.4815 430.0
17.7656 492.0
18.0497 527.0
18.3338 612.0
18.6179 690.0
18.9019 922.0
19.186 1089.0
19.4701 1376.0
19.7542 1722.0
20.0383 2120.0
20.3224 1854.0
20.6065 1393.0
20.8906 1129.0
21.1747 1091.0
21.4588 1191.0
21.7429 1542.0
22.0269 2208.0
22.311 2788.0
22.5951 2649.0
22.8792 2259.0
23.1633 1903.0
23.4474 1820.0
23.7315 1458.0
24.0156 1276.0
24.2997 1118.0
24.5838 1071.0
24.8679 1586.0
25.152 1916.0
25.436 1253.0
25.7201 1916.0
26.0042 4227.0
26.2883 2315.0
26.5724 2409.0
26.8565 2103.0
27.1406 1555.0
27.4247 1341.0
27.7088 1070.0
27.9929 1041.0
28.277 940.0
28.5611 915.0
28.8451 985.0
29.1292 955.0
29.4133 810.0
29.6974 731.0
29.9815 631.0
30.2656 663.0
30.5497 595.0
30.8338 531.0
31.1179 490.0
31.402 666.0
31.6861 803.0
31.9702 583.0
32.2542 582.0
32.5383 657.0
32.8224 752.0
33.1065 755.0
33.3906 839.0
33.6747 786.0
33.9588 720.0
34.2429 680.0
34.527 619.0
34.8111 584.0
35.0952 560.0
35.3793 486.0
35.6633 479.0
35.9474 442.0
36.2315 505.0
36.5156 519.0
36.7997 456.0
37.0838 510.0
37.3679 511.0
37.652 611.0
37.9361 651.0
38.2202 424.0
38.5043 396.0
38.7884 420.0
39.0724 427.0
39.3565 431.0
39.6406 426.0
39.9247 386.0
40.2088 396.0
40.4929 395.0
40.777 456.0
41.0611 412.0
41.3452 362.0
41.6293 369.0
41.9134 368.0
42.1975 413.0
42.4815 391.0
42.7656 416.0
43.0497 406.0
43.3338 397.0
43.6179 381.0
43.902 435.0
44.1861 475.0
44.4702 481.0
44.7543 500.0
45.0384 510.0
45.3225 441.0
45.6066 440.0
45.8906 566.0
46.1747 625.0
46.4588 578.0
46.7429 465.0
47.027 415.0
47.3111 383.0
47.5952 387.0
47.8793 444.0
48.1634 493.0
48.4475 592.0
48.7316 579.0
49.0156 582.0
49.2997 469.0
49.5838 429.0
49.8679 380.0
50.152 383.0
50.4361 385.0
50.7202 387.0
51.0043 435.0
51.2884 472.0
51.5725 558.0
51.8566 585.0
52.1407 538.0
52.4247 471.0
52.7088 438.0
52.9929 407.0
53.277 428.0
53.5611 418.0
53.8452 370.0
54.1293 350.0
54.4134 311.0
54.6975 314.0
54.9816 291.0
55.2657 278.0
55.5498 289.0
55.8338 311.0
56.1179 389.0
56.402 355.0
56.6861 351.0
56.9702 314.0
57.2543 363.0
57.5384 337.0
57.8225 353.0
58.1066 336.0
58.3907 320.0
58.6748 329.0
58.9589 367.0
59.2429 370.0
59.527 400.0
59.8111 378.0
60.0952 397.0
60.3793 388.0
60.6634 357.0
60.9475 344.0
61.2316 418.0
61.5157 387.0
61.7998 386.0
62.0839 332.0
62.368 341.0
62.652 370.0
62.9361 357.0
63.2202 357.0
63.5043 356.0
63.7884 378.0
64.0725 413.0
64.3566 424.0
64.6407 478.0
64.9248 500.0
65.2089 603.0
65.493 622.0
65.7771 531.0
66.0611 486.0
66.3452 472.0
66.6293 430.0
66.9134 375.0
67.1975 404.0
67.4816 371.0
67.7657 355.0
68.0498 341.0
68.3339 322.0
68.618 288.0
68.9021 295.0
69.1862 341.0
69.4702 317.0
69.7543 340.0
70.0384 344.0
70.3225 326.0
70.6066 284.0
70.8907 315.0
71.1748 306.0
71.4589 295.0
71.743 262.0
72.0271 287.0
72.3112 347.0
72.5952 372.0
72.8793 323.0
73.1634 376.0
73.4475 392.0
73.7316 329.0
74.0157 321.0
74.2998 319.0
74.5839 347.0
74.868 311.0
75.1521 301.0
75.4362 293.0
75.7203 322.0
76.0043 339.0
76.2884 322.0
76.5725 351.0
76.8566 317.0
77.1407 305.0
77.4248 331.0
77.7089 319.0
77.993 362.0
78.2771 377.0
78.5612 364.0
78.8453 347.0
79.1294 345.0
79.4134 344.0
79.6975 298.0
79.9816 288.0
80.2657 289.0
80.5498 294.0
80.8339 260.0
81.118 286.0
81.4021 239.0
81.6862 285.0
81.9703 241.0
82.2544 264.0
82.5385 262.0
82.8225 257.0
83.1066 239.0
83.3907 216.0
83.6748 213.0
83.9589 246.0
84.243 225.0
84.5271 243.0
84.8112 238.0
85.0953 208.0
85.3794 209.0
85.6635 185.0
85.9476 228.0
86.2316 200.0
86.5157 193.0
86.7998 197.0
87.0839 195.0
87.368 185.0
87.6521 199.0
87.9362 172.0
88.2203 186.0
88.5044 194.0
88.7885 194.0
89.0726 179.0
89.3567 200.0
89.6407 198.0
89.9248 207.0
89.9415 239.0