File: code/XRD_Analysis/External Sources/Fabian/20240404_RUB-50_lessMat_calc700C.xy
4.98146 1313.0
5.26555 1257.0
5.54964 1144.0
5.83373 1039.0
6.11782 1073.0
6.40191 991.0
6.68601 959.0
6.9701 1088.0
7.25419 1518.0
7.53828 1376.0
7.82237 1204.0
8.10646 1423.0
8.39055 1440.0
8.67465 1318.0
8.95874 1292.0
9.24283 1252.0
9.52692 1215.0
9.81101 1255.0
10.0951 1166.0
10.3792 1032.0
10.6633 878.0
10.9474 664.0
11.2315 672.0
11.5156 606.0
11.7997 586.0
12.0837 627.0
12.3678 590.0
12.6519 589.0
12.936 709.0
13.2201 708.0
13.5042 621.0
13.7883 604.0
14.0724 667.0
14.3565 755.0
14.6406 1341.0
14.9247 1153.0
15.2088 909.0
15.4928 821.0
15.7769 768.0
16.061 810.0
16.3451 759.0
16.6292 691.0
16.9133 594.0
17.1974 570.0
17.4815 591.0
17.7656 528.0
18.0497 565.0
18.3338 601.0
18.6179 649.0
18.9019 683.0
19.186 706.0
19.4701 805.0
19.7542 855.0
20.0383 944.0
20.3224 1067.0
20.6065 950.0
20.8906 901.0
21.1747 881.0
21.4588 842.0
21.7429 1032.0
22.0269 1284.0
22.311 1487.0
22.5951 1610.0
22.8792 1848.0
23.1633 1782.0
23.4474 1546.0
23.7315 1388.0
24.0156 1298.0
24.2997 1103.0
24.5838 1041.0
24.8679 1009.0
25.152 1119.0
25.436 1462.0
25.7201 1401.0
26.0042 1393.0
26.2883 2034.0
26.5724 1985.0
26.8565 1570.0
27.1406 1453.0
27.4247 1274.0
27.7088 1164.0
27.9929 1117.0
28.277 1049.0
28.5611 984.0
28.8451 950.0
29.1292 882.0
29.4133 870.0
29.6974 747.0
29.9815 724.0
30.2656 692.0
30.5497 630.0
30.8338 555.0
31.1179 514.0
31.402 565.0
31.6861 561.0
31.9702 609.0
32.2542 646.0
32.5383 611.0
32.8224 595.0
33.1065 582.0
33.3906 621.0
33.6747 623.0
33.9588 638.0
34.2429 622.0
34.527 569.0
34.8111 574.0
35.0952 541.0
35.3793 531.0
35.6633 488.0
35.9474 423.0
36.2315 465.0
36.5156 439.0
36.7997 463.0
37.0838 444.0
37.3679 410.0
37.652 436.0
37.9361 513.0
38.2202 477.0
38.5043 519.0
38.7884 465.0
39.0724 394.0
39.3565 355.0
39.6406 355.0
39.9247 371.0
40.2088 369.0
40.4929 366.0
40.777 377.0
41.0611 379.0
41.3452 415.0
41.6293 367.0
41.9134 367.0
42.1975 354.0
42.4815 349.0
42.7656 356.0
43.0497 388.0
43.3338 382.0
43.6179 407.0
43.902 357.0
44.1861 360.0
44.4702 378.0
44.7543 379.0
45.0384 399.0
45.3225 427.0
45.6066 384.0
45.8906 394.0
46.1747 371.0
46.4588 442.0
46.7429 477.0
47.027 443.0
47.3111 381.0
47.5952 364.0
47.8793 336.0
48.1634 356.0
48.4475 389.0
48.7316 376.0
49.0156 396.0
49.2997 388.0
49.5838 410.0
49.8679 410.0
50.152 378.0
50.4361 364.0
50.7202 385.0
51.0043 387.0
51.2884 371.0
51.5725 383.0
51.8566 393.0
52.1407 403.0
52.4247 398.0
52.7088 413.0
52.9929 399.0
53.277 363.0
53.5611 369.0
53.8452 302.0
54.1293 339.0
54.4134 382.0
54.6975 332.0
54.9816 338.0
55.2657 331.0
55.5498 315.0
55.8338 334.0
56.1179 321.0
56.402 354.0
56.6861 357.0
56.9702 338.0
57.2543 326.0
57.5384 338.0
57.8225 298.0
58.1066 370.0
58.3907 311.0
58.6748 307.0
58.9589 328.0
59.2429 293.0
59.527 330.0
59.8111 321.0
60.0952 308.0
60.3793 332.0
60.6634 342.0
60.9475 349.0
61.2316 335.0
61.5157 338.0
61.7998 334.0
62.0839 403.0
62.368 353.0
62.652 350.0
62.9361 351.0
63.2202 348.0
63.5043 315.0
63.7884 322.0
64.0725 325.0
64.3566 336.0
64.6407 377.0
64.9248 369.0
65.2089 417.0
65.493 354.0
65.7771 412.0
66.0611 409.0
66.3452 394.0
66.6293 399.0
66.9134 345.0
67.1975 375.0
67.4816 351.0
67.7657 337.0
68.0498 332.0
68.3339 338.0
68.618 328.0
68.9021 307.0
69.1862 323.0
69.4702 315.0
69.7543 303.0
70.0384 282.0
70.3225 310.0
70.6066 313.0
70.8907 328.0
71.1748 319.0
71.4589 323.0
71.743 303.0
72.0271 295.0
72.3112 299.0
72.5952 287.0
72.8793 276.0
73.1634 273.0
73.4475 288.0
73.7316 325.0
74.0157 317.0
74.2998 316.0
74.5839 297.0
74.868 303.0
75.1521 285.0
75.4362 261.0
75.7203 237.0
76.0043 282.0
76.2884 283.0
76.5725 273.0
76.8566 290.0
77.1407 286.0
77.4248 290.0
77.7089 271.0
77.993 284.0
78.2771 289.0
78.5612 292.0
78.8453 297.0
79.1294 287.0
79.4134 283.0
79.6975 300.0
79.9816 246.0
80.2657 299.0
80.5498 279.0
80.8339 231.0
81.118 232.0
81.4021 224.0
81.6862 233.0
81.9703 225.0
82.2544 231.0
82.5385 240.0
82.8225 228.0
83.1066 242.0
83.3907 199.0
83.6748 203.0
83.9589 192.0
84.243 198.0
84.5271 185.0
84.8112 172.0
85.0953 197.0
85.3794 207.0
85.6635 213.0
85.9476 207.0
86.2316 172.0
86.5157 181.0
86.7998 199.0
87.0839 193.0
87.368 154.0
87.6521 146.0
87.9362 184.0
88.2203 169.0
88.5044 177.0
88.7885 162.0
89.0726 152.0
89.3567 158.0
89.6407 175.0
89.9248 141.0
89.9415 173.0