File: code/XRD_Analysis/External Sources/Fabian/20240409_RhCo3_MCM-41_used.xy
4.98146 7443.0
5.26555 5608.0
5.54964 4609.0
5.83373 4063.0
6.11782 3986.0
6.40191 3822.0
6.68601 3702.0
6.9701 3363.0
7.25419 3297.0
7.53828 3210.0
7.82237 3088.0
8.10646 3027.0
8.39055 2943.0
8.67465 2872.0
8.95874 2814.0
9.24283 2765.0
9.52692 2755.0
9.81101 2697.0
10.0951 2687.0
10.3792 2686.0
10.6633 2666.0
10.9474 2703.0
11.2315 2616.0
11.5156 2604.0
11.7997 2781.0
12.0837 2584.0
12.3678 2540.0
12.6519 2617.0
12.936 2786.0
13.2201 2747.0
13.5042 2751.0
13.7883 2679.0
14.0724 2772.0
14.3565 2686.0
14.6406 2792.0
14.9247 2974.0
15.2088 2983.0
15.4928 3047.0
15.7769 2931.0
16.061 3238.0
16.3451 3189.0
16.6292 3396.0
16.9133 3432.0
17.1974 3598.0
17.4815 3756.0
17.7656 3664.0
18.0497 3831.0
18.3338 4090.0
18.6179 4112.0
18.9019 4315.0
19.186 4508.0
19.4701 4662.0
19.7542 4880.0
20.0383 4875.0
20.3224 5018.0
20.6065 5434.0
20.8906 5332.0
21.1747 5549.0
21.4588 5615.0
21.7429 5659.0
22.0269 5683.0
22.311 5798.0
22.5951 5951.0
22.8792 5845.0
23.1633 5745.0
23.4474 5880.0
23.7315 5748.0
24.0156 5679.0
24.2997 5678.0
24.5838 5683.0
24.8679 5547.0
25.152 5566.0
25.436 5316.0
25.7201 5227.0
26.0042 5207.0
26.2883 5151.0
26.5724 4998.0
26.8565 4935.0
27.1406 4768.0
27.4247 4756.0
27.7088 4714.0
27.9929 4599.0
28.277 4448.0
28.5611 4436.0
28.8451 4236.0
29.1292 4369.0
29.4133 4154.0
29.6974 4048.0
29.9815 4213.0
30.2656 4063.0
30.5497 3922.0
30.8338 3822.0
31.1179 3913.0
31.402 3819.0
31.6861 3746.0
31.9702 3678.0
32.2542 3795.0
32.5383 3508.0
32.8224 3695.0
33.1065 3642.0
33.3906 3627.0
33.6747 3601.0
33.9588 3606.0
34.2429 3364.0
34.527 3513.0
34.8111 3458.0
35.0952 3497.0
35.3793 3513.0
35.6633 3336.0
35.9474 3400.0
36.2315 3349.0
36.5156 3214.0
36.7997 3331.0
37.0838 3284.0
37.3679 3239.0
37.652 3208.0
37.9361 3248.0
38.2202 3280.0
38.5043 3244.0
38.7884 3237.0
39.0724 3103.0
39.3565 3218.0
39.6406 3142.0
39.9247 3192.0
40.2088 3201.0
40.4929 3130.0
40.777 3170.0
41.0611 3216.0
41.3452 3164.0
41.6293 3165.0
41.9134 3273.0
42.1975 3215.0
42.4815 3262.0
42.7656 3184.0
43.0497 3189.0
43.3338 3197.0
43.6179 3141.0
43.902 3170.0
44.1861 3202.0
44.4702 3086.0
44.7543 3199.0
45.0384 3118.0
45.3225 3246.0
45.6066 3030.0
45.8906 3017.0
46.1747 2951.0
46.4588 3013.0
46.7429 3098.0
47.027 3193.0
47.3111 3073.0
47.5952 3013.0
47.8793 2955.0
48.1634 2997.0
48.4475 3042.0
48.7316 3001.0
49.0156 3041.0
49.2997 2935.0
49.5838 3084.0
49.8679 3123.0
50.152 3061.0
50.4361 2931.0
50.7202 2909.0
51.0043 2981.0
51.2884 2865.0
51.5725 2906.0
51.8566 2939.0
52.1407 2867.0
52.4247 2861.0
52.7088 2844.0
52.9929 3004.0
53.277 2826.0
53.5611 2889.0
53.8452 2814.0
54.1293 2818.0
54.4134 2878.0
54.6975 2936.0
54.9816 2986.0
55.2657 2842.0
55.5498 2894.0
55.8338 2946.0
56.1179 2788.0
56.402 2840.0
56.6861 2813.0
56.9702 2882.0
57.2543 2859.0
57.5384 2987.0
57.8225 2907.0
58.1066 2931.0
58.3907 2839.0
58.6748 2850.0
58.9589 2913.0
59.2429 2888.0
59.527 2932.0
59.8111 2881.0
60.0952 2927.0
60.3793 2914.0
60.6634 2847.0
60.9475 2970.0
61.2316 2943.0
61.5157 2940.0
61.7998 2985.0
62.0839 2846.0
62.368 2908.0
62.652 3019.0
62.9361 2890.0
63.2202 2961.0
63.5043 2858.0
63.7884 2946.0
64.0725 2990.0
64.3566 2866.0
64.6407 2839.0
64.9248 2841.0
65.2089 2951.0
65.493 2935.0
65.7771 2972.0
66.0611 2831.0
66.3452 2929.0
66.6293 2891.0
66.9134 2826.0
67.1975 2891.0
67.4816 2830.0
67.7657 2889.0
68.0498 2978.0
68.3339 2899.0
68.618 2958.0
68.9021 2898.0
69.1862 2863.0
69.4702 2848.0
69.7543 2831.0
70.0384 2912.0
70.3225 2910.0
70.6066 2862.0
70.8907 2844.0
71.1748 2915.0
71.4589 2892.0
71.743 2947.0
72.0271 2936.0
72.3112 2837.0
72.5952 2925.0
72.8793 2888.0
73.1634 2854.0
73.4475 2809.0
73.7316 2797.0
74.0157 2812.0
74.2998 2849.0
74.5839 2893.0
74.868 2879.0
75.1521 2853.0
75.4362 2779.0
75.7203 2818.0
76.0043 2834.0
76.2884 2784.0
76.5725 2794.0
76.8566 2940.0
77.1407 2648.0
77.4248 2700.0
77.7089 2699.0
77.993 2730.0
78.2771 2775.0
78.5612 2725.0
78.8453 2757.0
79.1294 2691.0
79.4134 2598.0
79.6975 2729.0
79.9816 2685.0
80.2657 2807.0
80.5498 2589.0
80.8339 2677.0
81.118 2698.0
81.4021 2684.0
81.6862 2639.0
81.9703 2623.0
82.2544 2660.0
82.5385 2573.0
82.8225 2628.0
83.1066 2545.0
83.3907 2500.0
83.6748 2547.0
83.9589 2538.0
84.243 2345.0
84.5271 2483.0
84.8112 2492.0
85.0953 2433.0
85.3794 2483.0
85.6635 2463.0
85.9476 2470.0
86.2316 2506.0
86.5157 2383.0
86.7998 2325.0
87.0839 2337.0
87.368 2415.0
87.6521 2462.0
87.9362 2313.0
88.2203 2325.0
88.5044 2210.0
88.7885 2322.0
89.0726 2242.0
89.3567 2241.0
89.6407 2372.0
89.9248 2339.0
89.9583 2342.0