File: code/XRD_Analysis/External Sources/Fabian/20240223_RhCo3_MCM-41.xy
4.98146 4602.0
5.26555 3184.0
5.54964 2664.0
5.83373 2479.0
6.11782 2534.0
6.40191 2478.0
6.68601 2183.0
6.9701 2005.0
7.25419 1837.0
7.53828 1734.0
7.82237 1633.0
8.10646 1596.0
8.39055 1490.0
8.67465 1466.0
8.95874 1429.0
9.24283 1404.0
9.52692 1370.0
9.81101 1353.0
10.0951 1363.0
10.3792 1318.0
10.6633 1303.0
10.9474 1247.0
11.2315 1293.0
11.5156 1298.0
11.7997 1275.0
12.0837 1170.0
12.3678 1182.0
12.6519 1285.0
12.936 1223.0
13.2201 1285.0
13.5042 1248.0
13.7883 1326.0
14.0724 1271.0
14.3565 1301.0
14.6406 1291.0
14.9247 1283.0
15.2088 1375.0
15.4928 1373.0
15.7769 1387.0
16.061 1398.0
16.3451 1440.0
16.6292 1432.0
16.9133 1468.0
17.1974 1501.0
17.4815 1468.0
17.7656 1551.0
18.0497 1572.0
18.3338 1611.0
18.6179 1659.0
18.9019 1719.0
19.186 1732.0
19.4701 1877.0
19.7542 1789.0
20.0383 1836.0
20.3224 1895.0
20.6065 1969.0
20.8906 1988.0
21.1747 2026.0
21.4588 2040.0
21.7429 2054.0
22.0269 2099.0
22.311 2149.0
22.5951 2070.0
22.8792 2081.0
23.1633 1934.0
23.4474 2055.0
23.7315 2082.0
24.0156 2079.0
24.2997 2010.0
24.5838 1952.0
24.8679 1949.0
25.152 1954.0
25.436 1878.0
25.7201 1917.0
26.0042 1852.0
26.2883 1854.0
26.5724 1725.0
26.8565 1759.0
27.1406 1721.0
27.4247 1687.0
27.7088 1663.0
27.9929 1539.0
28.277 1566.0
28.5611 1544.0
28.8451 1456.0
29.1292 1527.0
29.4133 1495.0
29.6974 1469.0
29.9815 1435.0
30.2656 1385.0
30.5497 1479.0
30.8338 1368.0
31.1179 1319.0
31.402 1335.0
31.6861 1291.0
31.9702 1187.0
32.2542 1317.0
32.5383 1208.0
32.8224 1189.0
33.1065 1232.0
33.3906 1197.0
33.6747 1180.0
33.9588 1168.0
34.2429 1205.0
34.527 1181.0
34.8111 1132.0
35.0952 1168.0
35.3793 1170.0
35.6633 1162.0
35.9474 1093.0
36.2315 1066.0
36.5156 1120.0
36.7997 1097.0
37.0838 1107.0
37.3679 1086.0
37.652 1062.0
37.9361 1071.0
38.2202 1068.0
38.5043 1067.0
38.7884 932.0
39.0724 972.0
39.3565 998.0
39.6406 917.0
39.9247 939.0
40.2088 988.0
40.4929 976.0
40.777 990.0
41.0611 996.0
41.3452 947.0
41.6293 993.0
41.9134 982.0
42.1975 1007.0
42.4815 957.0
42.7656 953.0
43.0497 993.0
43.3338 900.0
43.6179 938.0
43.902 912.0
44.1861 1018.0
44.4702 929.0
44.7543 869.0
45.0384 919.0
45.3225 928.0
45.6066 892.0
45.8906 982.0
46.1747 880.0
46.4588 903.0
46.7429 914.0
47.027 932.0
47.3111 911.0
47.5952 878.0
47.8793 866.0
48.1634 925.0
48.4475 914.0
48.7316 931.0
49.0156 873.0
49.2997 851.0
49.5838 823.0
49.8679 842.0
50.152 909.0
50.4361 821.0
50.7202 911.0
51.0043 826.0
51.2884 815.0
51.5725 855.0
51.8566 834.0
52.1407 846.0
52.4247 845.0
52.7088 870.0
52.9929 866.0
53.277 845.0
53.5611 814.0
53.8452 802.0
54.1293 863.0
54.4134 835.0
54.6975 865.0
54.9816 805.0
55.2657 818.0
55.5498 816.0
55.8338 831.0
56.1179 763.0
56.402 779.0
56.6861 849.0
56.9702 823.0
57.2543 786.0
57.5384 794.0
57.8225 742.0
58.1066 838.0
58.3907 828.0
58.6748 787.0
58.9589 846.0
59.2429 857.0
59.527 851.0
59.8111 847.0
60.0952 789.0
60.3793 834.0
60.6634 825.0
60.9475 804.0
61.2316 798.0
61.5157 784.0
61.7998 815.0
62.0839 787.0
62.368 822.0
62.652 807.0
62.9361 775.0
63.2202 755.0
63.5043 810.0
63.7884 783.0
64.0725 771.0
64.3566 799.0
64.6407 786.0
64.9248 775.0
65.2089 835.0
65.493 785.0
65.7771 800.0
66.0611 762.0
66.3452 735.0
66.6293 808.0
66.9134 773.0
67.1975 804.0
67.4816 805.0
67.7657 782.0
68.0498 774.0
68.3339 727.0
68.618 725.0
68.9021 774.0
69.1862 771.0
69.4702 762.0
69.7543 757.0
70.0384 750.0
70.3225 705.0
70.6066 757.0
70.8907 784.0
71.1748 761.0
71.4589 713.0
71.743 742.0
72.0271 654.0
72.3112 684.0
72.5952 732.0
72.8793 723.0
73.1634 728.0
73.4475 729.0
73.7316 696.0
74.0157 684.0
74.2998 716.0
74.5839 740.0
74.868 741.0
75.1521 711.0
75.4362 750.0
75.7203 741.0
76.0043 751.0
76.2884 684.0
76.5725 717.0
76.8566 707.0
77.1407 684.0
77.4248 661.0
77.7089 656.0
77.993 683.0
78.2771 705.0
78.5612 686.0
78.8453 660.0
79.1294 688.0
79.4134 681.0
79.6975 660.0
79.9816 674.0
80.2657 673.0
80.5498 666.0
80.8339 620.0
81.118 602.0
81.4021 659.0
81.6862 648.0
81.9703 636.0
82.2544 697.0
82.5385 599.0
82.8225 637.0
83.1066 595.0
83.3907 653.0
83.6748 626.0
83.9589 629.0
84.243 623.0
84.5271 609.0
84.8112 605.0
85.0953 616.0
85.3794 611.0
85.6635 581.0
85.9476 595.0
86.2316 558.0
86.5157 614.0
86.7998 619.0
87.0839 572.0
87.368 547.0
87.6521 596.0
87.9362 585.0
88.2203 627.0
88.5044 581.0
88.7885 544.0
89.0726 600.0
89.3567 542.0
89.6407 566.0
89.9248 550.0
89.9415 606.0