File: code/XRD_Analysis/External Sources/Fabian/20240223_ZnZrOx.xy
4.98146 1126.0
5.26555 972.0
5.54964 904.0
5.83373 845.0
6.11782 819.0
6.40191 735.0
6.68601 784.0
6.9701 693.0
7.25419 692.0
7.53828 626.0
7.82237 629.0
8.10646 615.0
8.39055 528.0
8.67465 527.0
8.95874 537.0
9.24283 532.0
9.52692 471.0
9.81101 501.0
10.0951 457.0
10.3792 474.0
10.6633 441.0
10.9474 369.0
11.2315 353.0
11.5156 365.0
11.7997 367.0
12.0837 366.0
12.3678 365.0
12.6519 319.0
12.936 348.0
13.2201 300.0
13.5042 329.0
13.7883 344.0
14.0724 319.0
14.3565 323.0
14.6406 259.0
14.9247 287.0
15.2088 263.0
15.4928 252.0
15.7769 246.0
16.061 254.0
16.3451 242.0
16.6292 272.0
16.9133 244.0
17.1974 236.0
17.4815 238.0
17.7656 227.0
18.0497 231.0
18.3338 185.0
18.6179 204.0
18.9019 214.0
19.186 244.0
19.4701 211.0
19.7542 193.0
20.0383 196.0
20.3224 210.0
20.6065 206.0
20.8906 191.0
21.1747 207.0
21.4588 225.0
21.7429 183.0
22.0269 209.0
22.311 188.0
22.5951 212.0
22.8792 230.0
23.1633 270.0
23.4474 246.0
23.7315 215.0
24.0156 259.0
24.2997 250.0
24.5838 251.0
24.8679 239.0
25.152 235.0
25.436 298.0
25.7201 271.0
26.0042 307.0
26.2883 317.0
26.5724 306.0
26.8565 284.0
27.1406 322.0
27.4247 318.0
27.7088 380.0
27.9929 373.0
28.277 436.0
28.5611 447.0
28.8451 503.0
29.1292 585.0
29.4133 734.0
29.6974 917.0
29.9815 1297.0
30.2656 2577.0
30.5497 7899.0
30.8338 3993.0
31.1179 1372.0
31.402 912.0
31.6861 713.0
31.9702 676.0
32.2542 600.0
32.5383 588.0
32.8224 527.0
33.1065 543.0
33.3906 550.0
33.6747 552.0
33.9588 486.0
34.2429 548.0
34.527 522.0
34.8111 568.0
35.0952 728.0
35.3793 1949.0
35.6633 1177.0
35.9474 457.0
36.2315 349.0
36.5156 285.0
36.7997 223.0
37.0838 232.0
37.3679 236.0
37.652 175.0
37.9361 189.0
38.2202 198.0
38.5043 161.0
38.7884 173.0
39.0724 169.0
39.3565 165.0
39.6406 176.0
39.9247 169.0
40.2088 178.0
40.4929 185.0
40.777 177.0
41.0611 181.0
41.3452 189.0
41.6293 206.0
41.9134 221.0
42.1975 201.0
42.4815 220.0
42.7656 184.0
43.0497 231.0
43.3338 239.0
43.6179 230.0
43.902 243.0
44.1861 266.0
44.4702 232.0
44.7543 213.0
45.0384 232.0
45.3225 239.0
45.6066 228.0
45.8906 293.0
46.1747 232.0
46.4588 256.0
46.7429 294.0
47.027 250.0
47.3111 263.0
47.5952 302.0
47.8793 297.0
48.1634 304.0
48.4475 318.0
48.7316 372.0
49.0156 427.0
49.2997 461.0
49.5838 537.0
49.8679 573.0
50.152 816.0
50.4361 1110.0
50.7202 2278.0
51.0043 3741.0
51.2884 1931.0
51.5725 865.0
51.8566 571.0
52.1407 423.0
52.4247 384.0
52.7088 353.0
52.9929 350.0
53.277 308.0
53.5611 323.0
53.8452 340.0
54.1293 301.0
54.4134 314.0
54.6975 301.0
54.9816 306.0
55.2657 294.0
55.5498 310.0
55.8338 314.0
56.1179 310.0
56.402 307.0
56.6861 326.0
56.9702 345.0
57.2543 354.0
57.5384 352.0
57.8225 376.0
58.1066 364.0
58.3907 372.0
58.6748 385.0
58.9589 427.0
59.2429 473.0
59.527 557.0
59.8111 745.0
60.0952 1039.0
60.3793 2068.0
60.6634 2497.0
60.9475 1318.0
61.2316 658.0
61.5157 487.0
61.7998 397.0
62.0839 349.0
62.368 350.0
62.652 357.0
62.9361 367.0
63.2202 472.0
63.5043 653.0
63.7884 504.0
64.0725 399.0
64.3566 286.0
64.6407 266.0
64.9248 222.0
65.2089 242.0
65.493 224.0
65.7771 238.0
66.0611 219.0
66.3452 205.0
66.6293 229.0
66.9134 215.0
67.1975 204.0
67.4816 178.0
67.7657 190.0
68.0498 207.0
68.3339 183.0
68.618 190.0
68.9021 179.0
69.1862 186.0
69.4702 163.0
69.7543 155.0
70.0384 167.0
70.3225 183.0
70.6066 160.0
70.8907 154.0
71.1748 159.0
71.4589 151.0
71.743 157.0
72.0271 146.0
72.3112 150.0
72.5952 208.0
72.8793 162.0
73.1634 178.0
73.4475 207.0
73.7316 196.0
74.0157 191.0
74.2998 236.0
74.5839 373.0
74.868 475.0
75.1521 407.0
75.4362 214.0
75.7203 178.0
76.0043 165.0
76.2884 154.0
76.5725 150.0
76.8566 165.0
77.1407 161.0
77.4248 147.0
77.7089 162.0
77.993 150.0
78.2771 168.0
78.5612 143.0
78.8453 193.0
79.1294 153.0
79.4134 153.0
79.6975 181.0
79.9816 165.0
80.2657 199.0
80.5498 186.0
80.8339 203.0
81.118 210.0
81.4021 188.0
81.6862 274.0
81.9703 313.0
82.2544 391.0
82.5385 536.0
82.8225 705.0
83.1066 664.0
83.3907 513.0
83.6748 392.0
83.9589 295.0
84.243 240.0
84.5271 309.0
84.8112 311.0
85.0953 391.0
85.3794 481.0
85.6635 503.0
85.9476 425.0
86.2316 293.0
86.5157 213.0
86.7998 188.0
87.0839 205.0
87.368 173.0
87.6521 175.0
87.9362 193.0
88.2203 208.0
88.5044 188.0
88.7885 181.0
89.0726 167.0
89.3567 161.0
89.6407 165.0
89.9248 175.0
89.9415 185.0