File: code/XRD_Analysis/External Sources/Fabian/20240402_RUB-50_calc_lessmaterial.xy
4.98146 1351.0
5.26555 1278.0
5.54964 1145.0
5.83373 1116.0
6.11782 1058.0
6.40191 1091.0
6.68601 1033.0
6.9701 1187.0
7.25419 1790.0
7.53828 1712.0
7.82237 1200.0
8.10646 1246.0
8.39055 1533.0
8.67465 1479.0
8.95874 1531.0
9.24283 1396.0
9.52692 1385.0
9.81101 1387.0
10.0951 1234.0
10.3792 1039.0
10.6633 942.0
10.9474 770.0
11.2315 643.0
11.5156 622.0
11.7997 587.0
12.0837 570.0
12.3678 570.0
12.6519 598.0
12.936 692.0
13.2201 700.0
13.5042 591.0
13.7883 584.0
14.0724 661.0
14.3565 907.0
14.6406 1721.0
14.9247 1284.0
15.2088 1076.0
15.4928 870.0
15.7769 880.0
16.061 851.0
16.3451 800.0
16.6292 693.0
16.9133 621.0
17.1974 583.0
17.4815 590.0
17.7656 553.0
18.0497 556.0
18.3338 667.0
18.6179 712.0
18.9019 848.0
19.186 966.0
19.4701 1022.0
19.7542 1110.0
20.0383 1147.0
20.3224 1174.0
20.6065 1132.0
20.8906 1011.0
21.1747 963.0
21.4588 944.0
21.7429 1234.0
22.0269 1576.0
22.311 2028.0
22.5951 2284.0
22.8792 2558.0
23.1633 2254.0
23.4474 1865.0
23.7315 1594.0
24.0156 1576.0
24.2997 1339.0
24.5838 1053.0
24.8679 1098.0
25.152 1438.0
25.436 1928.0
25.7201 1600.0
26.0042 1888.0
26.2883 3351.0
26.5724 2594.0
26.8565 2041.0
27.1406 1902.0
27.4247 1799.0
27.7088 1569.0
27.9929 1393.0
28.277 1287.0
28.5611 1172.0
28.8451 1134.0
29.1292 1044.0
29.4133 928.0
29.6974 832.0
29.9815 798.0
30.2656 741.0
30.5497 679.0
30.8338 643.0
31.1179 629.0
31.402 595.0
31.6861 705.0
31.9702 762.0
32.2542 770.0
32.5383 669.0
32.8224 704.0
33.1065 756.0
33.3906 777.0
33.6747 814.0
33.9588 803.0
34.2429 722.0
34.527 692.0
34.8111 700.0
35.0952 719.0
35.3793 557.0
35.6633 527.0
35.9474 516.0
36.2315 485.0
36.5156 516.0
36.7997 534.0
37.0838 522.0
37.3679 542.0
37.652 550.0
37.9361 500.0
38.2202 622.0
38.5043 561.0
38.7884 502.0
39.0724 459.0
39.3565 449.0
39.6406 492.0
39.9247 458.0
40.2088 462.0
40.4929 434.0
40.777 472.0
41.0611 433.0
41.3452 460.0
41.6293 434.0
41.9134 422.0
42.1975 427.0
42.4815 410.0
42.7656 448.0
43.0497 450.0
43.3338 459.0
43.6179 461.0
43.902 465.0
44.1861 443.0
44.4702 465.0
44.7543 485.0
45.0384 492.0
45.3225 463.0
45.6066 479.0
45.8906 467.0
46.1747 459.0
46.4588 613.0
46.7429 602.0
47.027 512.0
47.3111 486.0
47.5952 429.0
47.8793 373.0
48.1634 409.0
48.4475 465.0
48.7316 529.0
49.0156 512.0
49.2997 524.0
49.5838 543.0
49.8679 424.0
50.152 451.0
50.4361 441.0
50.7202 439.0
51.0043 431.0
51.2884 443.0
51.5725 490.0
51.8566 467.0
52.1407 480.0
52.4247 472.0
52.7088 477.0
52.9929 460.0
53.277 442.0
53.5611 416.0
53.8452 404.0
54.1293 383.0
54.4134 392.0
54.6975 388.0
54.9816 363.0
55.2657 373.0
55.5498 346.0
55.8338 361.0
56.1179 364.0
56.402 353.0
56.6861 404.0
56.9702 411.0
57.2543 404.0
57.5384 419.0
57.8225 362.0
58.1066 406.0
58.3907 372.0
58.6748 422.0
58.9589 383.0
59.2429 392.0
59.527 368.0
59.8111 385.0
60.0952 388.0
60.3793 410.0
60.6634 384.0
60.9475 350.0
61.2316 376.0
61.5157 378.0
61.7998 439.0
62.0839 407.0
62.368 417.0
62.652 413.0
62.9361 360.0
63.2202 391.0
63.5043 391.0
63.7884 367.0
64.0725 407.0
64.3566 403.0
64.6407 400.0
64.9248 424.0
65.2089 418.0
65.493 498.0
65.7771 506.0
66.0611 548.0
66.3452 537.0
66.6293 475.0
66.9134 476.0
67.1975 414.0
67.4816 423.0
67.7657 383.0
68.0498 363.0
68.3339 354.0
68.618 364.0
68.9021 340.0
69.1862 360.0
69.4702 333.0
69.7543 353.0
70.0384 367.0
70.3225 357.0
70.6066 354.0
70.8907 381.0
71.1748 377.0
71.4589 326.0
71.743 362.0
72.0271 314.0
72.3112 335.0
72.5952 372.0
72.8793 364.0
73.1634 361.0
73.4475 358.0
73.7316 409.0
74.0157 362.0
74.2998 349.0
74.5839 337.0
74.868 349.0
75.1521 336.0
75.4362 365.0
75.7203 338.0
76.0043 310.0
76.2884 318.0
76.5725 332.0
76.8566 353.0
77.1407 330.0
77.4248 323.0
77.7089 369.0
77.993 339.0
78.2771 358.0
78.5612 314.0
78.8453 394.0
79.1294 378.0
79.4134 371.0
79.6975 339.0
79.9816 305.0
80.2657 335.0
80.5498 378.0
80.8339 305.0
81.118 325.0
81.4021 299.0
81.6862 298.0
81.9703 257.0
82.2544 277.0
82.5385 242.0
82.8225 280.0
83.1066 251.0
83.3907 238.0
83.6748 237.0
83.9589 243.0
84.243 240.0
84.5271 240.0
84.8112 223.0
85.0953 193.0
85.3794 223.0
85.6635 221.0
85.9476 248.0
86.2316 193.0
86.5157 215.0
86.7998 203.0
87.0839 228.0
87.368 209.0
87.6521 176.0
87.9362 207.0
88.2203 189.0
88.5044 192.0
88.7885 185.0
89.0726 198.0
89.3567 207.0
89.6407 203.0
89.9248 175.0
89.9415 211.0