File: code/XRD_Analysis/External Sources/Fabian/20240402_RUB-50_calc_morematerial.xy
4.98146 1373.0
5.26555 1302.0
5.54964 1243.0
5.83373 1157.0
6.11782 1156.0
6.40191 1113.0
6.68601 1081.0
6.9701 1298.0
7.25419 2550.0
7.53828 1625.0
7.82237 1391.0
8.10646 1620.0
8.39055 1704.0
8.67465 1656.0
8.95874 1607.0
9.24283 1590.0
9.52692 1622.0
9.81101 1574.0
10.0951 1400.0
10.3792 1156.0
10.6633 959.0
10.9474 826.0
11.2315 768.0
11.5156 662.0
11.7997 648.0
12.0837 630.0
12.3678 670.0
12.6519 774.0
12.936 824.0
13.2201 759.0
13.5042 716.0
13.7883 758.0
14.0724 844.0
14.3565 1258.0
14.6406 1972.0
14.9247 1423.0
15.2088 1193.0
15.4928 1104.0
15.7769 1052.0
16.061 1081.0
16.3451 957.0
16.6292 818.0
16.9133 744.0
17.1974 709.0
17.4815 616.0
17.7656 707.0
18.0497 806.0
18.3338 822.0
18.6179 904.0
18.9019 1015.0
19.186 1230.0
19.4701 1256.0
19.7542 1326.0
20.0383 1425.0
20.3224 1366.0
20.6065 1267.0
20.8906 1135.0
21.1747 1043.0
21.4588 1164.0
21.7429 1607.0
22.0269 1960.0
22.311 2506.0
22.5951 2811.0
22.8792 2828.0
23.1633 2470.0
23.4474 1976.0
23.7315 1941.0
24.0156 1688.0
24.2997 1533.0
24.5838 1299.0
24.8679 1341.0
25.152 1868.0
25.436 1987.0
25.7201 1738.0
26.0042 2466.0
26.2883 3805.0
26.5724 2407.0
26.8565 2225.0
27.1406 2176.0
27.4247 1893.0
27.7088 1596.0
27.9929 1600.0
28.277 1408.0
28.5611 1281.0
28.8451 1242.0
29.1292 1149.0
29.4133 1069.0
29.6974 901.0
29.9815 859.0
30.2656 837.0
30.5497 798.0
30.8338 710.0
31.1179 710.0
31.402 767.0
31.6861 825.0
31.9702 937.0
32.2542 815.0
32.5383 810.0
32.8224 785.0
33.1065 867.0
33.3906 837.0
33.6747 917.0
33.9588 854.0
34.2429 802.0
34.527 729.0
34.8111 690.0
35.0952 676.0
35.3793 605.0
35.6633 584.0
35.9474 589.0
36.2315 567.0
36.5156 561.0
36.7997 589.0
37.0838 511.0
37.3679 510.0
37.652 594.0
37.9361 581.0
38.2202 656.0
38.5043 559.0
38.7884 503.0
39.0724 465.0
39.3565 473.0
39.6406 450.0
39.9247 444.0
40.2088 450.0
40.4929 461.0
40.777 477.0
41.0611 442.0
41.3452 430.0
41.6293 422.0
41.9134 461.0
42.1975 461.0
42.4815 442.0
42.7656 451.0
43.0497 457.0
43.3338 470.0
43.6179 401.0
43.902 473.0
44.1861 426.0
44.4702 500.0
44.7543 495.0
45.0384 526.0
45.3225 449.0
45.6066 477.0
45.8906 517.0
46.1747 507.0
46.4588 563.0
46.7429 605.0
47.027 563.0
47.3111 470.0
47.5952 457.0
47.8793 417.0
48.1634 476.0
48.4475 508.0
48.7316 497.0
49.0156 523.0
49.2997 529.0
49.5838 527.0
49.8679 522.0
50.152 441.0
50.4361 442.0
50.7202 471.0
51.0043 449.0
51.2884 471.0
51.5725 505.0
51.8566 470.0
52.1407 496.0
52.4247 520.0
52.7088 485.0
52.9929 461.0
53.277 395.0
53.5611 434.0
53.8452 450.0
54.1293 419.0
54.4134 386.0
54.6975 399.0
54.9816 367.0
55.2657 392.0
55.5498 373.0
55.8338 370.0
56.1179 377.0
56.402 373.0
56.6861 402.0
56.9702 423.0
57.2543 385.0
57.5384 402.0
57.8225 358.0
58.1066 355.0
58.3907 345.0
58.6748 388.0
58.9589 336.0
59.2429 406.0
59.527 351.0
59.8111 385.0
60.0952 368.0
60.3793 403.0
60.6634 358.0
60.9475 401.0
61.2316 365.0
61.5157 411.0
61.7998 420.0
62.0839 430.0
62.368 377.0
62.652 457.0
62.9361 389.0
63.2202 398.0
63.5043 392.0
63.7884 364.0
64.0725 375.0
64.3566 413.0
64.6407 407.0
64.9248 445.0
65.2089 450.0
65.493 497.0
65.7771 523.0
66.0611 528.0
66.3452 488.0
66.6293 488.0
66.9134 414.0
67.1975 414.0
67.4816 366.0
67.7657 391.0
68.0498 392.0
68.3339 369.0
68.618 319.0
68.9021 381.0
69.1862 379.0
69.4702 370.0
69.7543 306.0
70.0384 364.0
70.3225 367.0
70.6066 377.0
70.8907 358.0
71.1748 353.0
71.4589 363.0
71.743 358.0
72.0271 348.0
72.3112 349.0
72.5952 329.0
72.8793 389.0
73.1634 364.0
73.4475 353.0
73.7316 331.0
74.0157 373.0
74.2998 389.0
74.5839 317.0
74.868 349.0
75.1521 341.0
75.4362 346.0
75.7203 333.0
76.0043 335.0
76.2884 304.0
76.5725 365.0
76.8566 331.0
77.1407 338.0
77.4248 336.0
77.7089 339.0
77.993 325.0
78.2771 350.0
78.5612 356.0
78.8453 362.0
79.1294 377.0
79.4134 336.0
79.6975 337.0
79.9816 321.0
80.2657 295.0
80.5498 317.0
80.8339 308.0
81.118 298.0
81.4021 300.0
81.6862 277.0
81.9703 308.0
82.2544 262.0
82.5385 257.0
82.8225 236.0
83.1066 244.0
83.3907 260.0
83.6748 253.0
83.9589 250.0
84.243 211.0
84.5271 199.0
84.8112 237.0
85.0953 204.0
85.3794 217.0
85.6635 196.0
85.9476 224.0
86.2316 208.0
86.5157 203.0
86.7998 198.0
87.0839 196.0
87.368 172.0
87.6521 205.0
87.9362 200.0
88.2203 195.0
88.5044 172.0
88.7885 180.0
89.0726 200.0
89.3567 184.0
89.6407 216.0
89.9248 194.0
89.9415 183.0