File: code/XRD_Analysis/External Sources/Fabian/20240409_RhCo3_MCm-41_not_used.xy
4.98146 17714.0
5.26555 12104.0
5.54964 9245.0
5.83373 8332.0
6.11782 7966.0
6.40191 7974.0
6.68601 7196.0
6.9701 6268.0
7.25419 5858.0
7.53828 5585.0
7.82237 5311.0
8.10646 5001.0
8.39055 4796.0
8.67465 4737.0
8.95874 4552.0
9.24283 4447.0
9.52692 4214.0
9.81101 4214.0
10.0951 4259.0
10.3792 4157.0
10.6633 4121.0
10.9474 4053.0
11.2315 3954.0
11.5156 3981.0
11.7997 4024.0
12.0837 4008.0
12.3678 4039.0
12.6519 3946.0
12.936 3999.0
13.2201 3913.0
13.5042 4054.0
13.7883 4030.0
14.0724 4151.0
14.3565 4153.0
14.6406 4299.0
14.9247 4298.0
15.2088 4405.0
15.4928 4391.0
15.7769 4584.0
16.061 4576.0
16.3451 4586.0
16.6292 4799.0
16.9133 4952.0
17.1974 5056.0
17.4815 5035.0
17.7656 5282.0
18.0497 5415.0
18.3338 5550.0
18.6179 5696.0
18.9019 5859.0
19.186 5902.0
19.4701 5973.0
19.7542 6240.0
20.0383 6332.0
20.3224 6608.0
20.6065 6518.0
20.8906 6772.0
21.1747 6935.0
21.4588 6856.0
21.7429 6956.0
22.0269 7088.0
22.311 7093.0
22.5951 7162.0
22.8792 7033.0
23.1633 7005.0
23.4474 7150.0
23.7315 6965.0
24.0156 6883.0
24.2997 6922.0
24.5838 6696.0
24.8679 6705.0
25.152 6513.0
25.436 6474.0
25.7201 6168.0
26.0042 6143.0
26.2883 6000.0
26.5724 5790.0
26.8565 5645.0
27.1406 5681.0
27.4247 5512.0
27.7088 5367.0
27.9929 5228.0
28.277 5142.0
28.5611 4976.0
28.8451 4961.0
29.1292 4847.0
29.4133 4617.0
29.6974 4744.0
29.9815 4504.0
30.2656 4472.0
30.5497 4382.0
30.8338 4357.0
31.1179 4233.0
31.402 4271.0
31.6861 4247.0
31.9702 4269.0
32.2542 4141.0
32.5383 3987.0
32.8224 3927.0
33.1065 3885.0
33.3906 3844.0
33.6747 3958.0
33.9588 3881.0
34.2429 3810.0
34.527 3820.0
34.8111 3805.0
35.0952 3631.0
35.3793 3708.0
35.6633 3778.0
35.9474 3739.0
36.2315 3795.0
36.5156 3676.0
36.7997 3566.0
37.0838 3571.0
37.3679 3373.0
37.652 3344.0
37.9361 3252.0
38.2202 3221.0
38.5043 3242.0
38.7884 3221.0
39.0724 3094.0
39.3565 3081.0
39.6406 3090.0
39.9247 3082.0
40.2088 3041.0
40.4929 2981.0
40.777 3019.0
41.0611 2964.0
41.3452 2990.0
41.6293 2985.0
41.9134 3013.0
42.1975 3033.0
42.4815 2895.0
42.7656 2938.0
43.0497 3010.0
43.3338 2912.0
43.6179 2976.0
43.902 2913.0
44.1861 2915.0
44.4702 2881.0
44.7543 2964.0
45.0384 2944.0
45.3225 3012.0
45.6066 2924.0
45.8906 2858.0
46.1747 2833.0
46.4588 2813.0
46.7429 2907.0
47.027 2796.0
47.3111 2902.0
47.5952 2827.0
47.8793 2773.0
48.1634 2604.0
48.4475 2748.0
48.7316 2801.0
49.0156 2692.0
49.2997 2741.0
49.5838 2724.0
49.8679 2630.0
50.152 2590.0
50.4361 2639.0
50.7202 2629.0
51.0043 2617.0
51.2884 2618.0
51.5725 2618.0
51.8566 2658.0
52.1407 2625.0
52.4247 2562.0
52.7088 2570.0
52.9929 2551.0
53.277 2509.0
53.5611 2598.0
53.8452 2517.0
54.1293 2517.0
54.4134 2598.0
54.6975 2588.0
54.9816 2512.0
55.2657 2547.0
55.5498 2546.0
55.8338 2546.0
56.1179 2505.0
56.402 2555.0
56.6861 2549.0
56.9702 2529.0
57.2543 2480.0
57.5384 2413.0
57.8225 2457.0
58.1066 2582.0
58.3907 2404.0
58.6748 2508.0
58.9589 2547.0
59.2429 2592.0
59.527 2465.0
59.8111 2394.0
60.0952 2447.0
60.3793 2521.0
60.6634 2427.0
60.9475 2473.0
61.2316 2442.0
61.5157 2435.0
61.7998 2617.0
62.0839 2378.0
62.368 2541.0
62.652 2561.0
62.9361 2468.0
63.2202 2557.0
63.5043 2516.0
63.7884 2400.0
64.0725 2427.0
64.3566 2399.0
64.6407 2413.0
64.9248 2336.0
65.2089 2365.0
65.493 2343.0
65.7771 2424.0
66.0611 2244.0
66.3452 2371.0
66.6293 2388.0
66.9134 2353.0
67.1975 2329.0
67.4816 2339.0
67.7657 2456.0
68.0498 2278.0
68.3339 2411.0
68.618 2437.0
68.9021 2322.0
69.1862 2332.0
69.4702 2296.0
69.7543 2248.0
70.0384 2256.0
70.3225 2293.0
70.6066 2252.0
70.8907 2257.0
71.1748 2260.0
71.4589 2221.0
71.743 2238.0
72.0271 2273.0
72.3112 2205.0
72.5952 2194.0
72.8793 2262.0
73.1634 2152.0
73.4475 2134.0
73.7316 2109.0
74.0157 2110.0
74.2998 2093.0
74.5839 2154.0
74.868 2137.0
75.1521 2202.0
75.4362 2139.0
75.7203 2103.0
76.0043 2044.0
76.2884 2092.0
76.5725 2138.0
76.8566 2222.0
77.1407 2036.0
77.4248 2163.0
77.7089 2138.0
77.993 2096.0
78.2771 2015.0
78.5612 2026.0
78.8453 2133.0
79.1294 2145.0
79.4134 2098.0
79.6975 1953.0
79.9816 2008.0
80.2657 2007.0
80.5498 1868.0
80.8339 2050.0
81.118 1912.0
81.4021 1899.0
81.6862 1950.0
81.9703 1982.0
82.2544 1929.0
82.5385 1944.0
82.8225 1899.0
83.1066 1889.0
83.3907 1900.0
83.6748 1855.0
83.9589 1920.0
84.243 1831.0
84.5271 1786.0
84.8112 1826.0
85.0953 1814.0
85.3794 1795.0
85.6635 1818.0
85.9476 1814.0
86.2316 1753.0
86.5157 1732.0
86.7998 1806.0
87.0839 1790.0
87.368 1762.0
87.6521 1830.0
87.9362 1732.0
88.2203 1755.0
88.5044 1750.0
88.7885 1670.0
89.0726 1681.0
89.3567 1788.0
89.6407 1703.0
89.9248 1709.0
89.9583 1725.0