File: code/XRD_Analysis/External Sources/Fabian/20240402_RUB-50_notcalc_morematerial.xy
4.98146 1276.0
5.26555 1182.0
5.54964 1130.0
5.83373 1205.0
6.11782 1319.0
6.40191 1683.0
6.68601 2516.0
6.9701 2079.0
7.25419 3358.0
7.53828 1121.0
7.82237 1277.0
8.10646 1751.0
8.39055 1898.0
8.67465 1835.0
8.95874 1714.0
9.24283 1680.0
9.52692 1526.0
9.81101 1322.0
10.0951 1068.0
10.3792 787.0
10.6633 686.0
10.9474 540.0
11.2315 567.0
11.5156 481.0
11.7997 512.0
12.0837 496.0
12.3678 506.0
12.6519 674.0
12.936 744.0
13.2201 743.0
13.5042 822.0
13.7883 701.0
14.0724 629.0
14.3565 797.0
14.6406 876.0
14.9247 742.0
15.2088 669.0
15.4928 761.0
15.7769 772.0
16.061 705.0
16.3451 770.0
16.6292 653.0
16.9133 579.0
17.1974 500.0
17.4815 486.0
17.7656 621.0
18.0497 618.0
18.3338 745.0
18.6179 888.0
18.9019 1087.0
19.186 1376.0
19.4701 1769.0
19.7542 2269.0
20.0383 2574.0
20.3224 2354.0
20.6065 1823.0
20.8906 1430.0
21.1747 1356.0
21.4588 1453.0
21.7429 1735.0
22.0269 2828.0
22.311 3458.0
22.5951 3240.0
22.8792 2727.0
23.1633 2464.0
23.4474 2148.0
23.7315 1845.0
24.0156 1553.0
24.2997 1453.0
24.5838 1323.0
24.8679 1817.0
25.152 2268.0
25.436 1509.0
25.7201 2080.0
26.0042 5082.0
26.2883 2777.0
26.5724 2736.0
26.8565 2483.0
27.1406 1818.0
27.4247 1460.0
27.7088 1283.0
27.9929 1173.0
28.277 1069.0
28.5611 1055.0
28.8451 1017.0
29.1292 1121.0
29.4133 989.0
29.6974 822.0
29.9815 783.0
30.2656 740.0
30.5497 660.0
30.8338 586.0
31.1179 574.0
31.402 688.0
31.6861 873.0
31.9702 628.0
32.2542 725.0
32.5383 691.0
32.8224 776.0
33.1065 880.0
33.3906 926.0
33.6747 884.0
33.9588 815.0
34.2429 727.0
34.527 641.0
34.8111 649.0
35.0952 620.0
35.3793 506.0
35.6633 446.0
35.9474 438.0
36.2315 541.0
36.5156 590.0
36.7997 473.0
37.0838 523.0
37.3679 502.0
37.652 609.0
37.9361 736.0
38.2202 474.0
38.5043 420.0
38.7884 375.0
39.0724 393.0
39.3565 422.0
39.6406 434.0
39.9247 400.0
40.2088 403.0
40.4929 462.0
40.777 479.0
41.0611 432.0
41.3452 388.0
41.6293 424.0
41.9134 376.0
42.1975 386.0
42.4815 423.0
42.7656 427.0
43.0497 438.0
43.3338 461.0
43.6179 441.0
43.902 444.0
44.1861 432.0
44.4702 532.0
44.7543 544.0
45.0384 510.0
45.3225 494.0
45.6066 492.0
45.8906 569.0
46.1747 688.0
46.4588 561.0
46.7429 492.0
47.027 364.0
47.3111 368.0
47.5952 369.0
47.8793 461.0
48.1634 507.0
48.4475 567.0
48.7316 556.0
49.0156 492.0
49.2997 504.0
49.5838 410.0
49.8679 397.0
50.152 378.0
50.4361 391.0
50.7202 392.0
51.0043 462.0
51.2884 480.0
51.5725 526.0
51.8566 578.0
52.1407 548.0
52.4247 495.0
52.7088 427.0
52.9929 433.0
53.277 378.0
53.5611 379.0
53.8452 347.0
54.1293 341.0
54.4134 284.0
54.6975 314.0
54.9816 294.0
55.2657 277.0
55.5498 286.0
55.8338 355.0
56.1179 372.0
56.402 398.0
56.6861 351.0
56.9702 333.0
57.2543 369.0
57.5384 336.0
57.8225 320.0
58.1066 347.0
58.3907 345.0
58.6748 310.0
58.9589 358.0
59.2429 308.0
59.527 333.0
59.8111 360.0
60.0952 370.0
60.3793 337.0
60.6634 337.0
60.9475 334.0
61.2316 380.0
61.5157 347.0
61.7998 346.0
62.0839 340.0
62.368 333.0
62.652 282.0
62.9361 347.0
63.2202 350.0
63.5043 352.0
63.7884 340.0
64.0725 376.0
64.3566 425.0
64.6407 401.0
64.9248 482.0
65.2089 540.0
65.493 566.0
65.7771 547.0
66.0611 471.0
66.3452 448.0
66.6293 406.0
66.9134 354.0
67.1975 371.0
67.4816 362.0
67.7657 298.0
68.0498 306.0
68.3339 313.0
68.618 280.0
68.9021 314.0
69.1862 272.0
69.4702 292.0
69.7543 324.0
70.0384 316.0
70.3225 336.0
70.6066 284.0
70.8907 298.0
71.1748 289.0
71.4589 275.0
71.743 295.0
72.0271 283.0
72.3112 366.0
72.5952 319.0
72.8793 345.0
73.1634 351.0
73.4475 313.0
73.7316 322.0
74.0157 317.0
74.2998 311.0
74.5839 282.0
74.868 276.0
75.1521 307.0
75.4362 299.0
75.7203 304.0
76.0043 320.0
76.2884 311.0
76.5725 270.0
76.8566 336.0
77.1407 321.0
77.4248 347.0
77.7089 348.0
77.993 356.0
78.2771 377.0
78.5612 380.0
78.8453 335.0
79.1294 335.0
79.4134 332.0
79.6975 332.0
79.9816 318.0
80.2657 270.0
80.5498 297.0
80.8339 262.0
81.118 271.0
81.4021 247.0
81.6862 276.0
81.9703 256.0
82.2544 255.0
82.5385 274.0
82.8225 275.0
83.1066 287.0
83.3907 241.0
83.6748 239.0
83.9589 205.0
84.243 227.0
84.5271 217.0
84.8112 235.0
85.0953 183.0
85.3794 217.0
85.6635 194.0
85.9476 214.0
86.2316 233.0
86.5157 206.0
86.7998 200.0
87.0839 214.0
87.368 206.0
87.6521 197.0
87.9362 213.0
88.2203 186.0
88.5044 178.0
88.7885 215.0
89.0726 183.0
89.3567 184.0
89.6407 201.0
89.9248 193.0
89.9415 191.0