File: code/XRD_Analysis/External Sources/Fabian/20240404_RUB-50_moreMat_calc600C.xy
4.98146 1246.0
5.26555 1162.0
5.54964 963.0
5.83373 994.0
6.11782 947.0
6.40191 920.0
6.68601 955.0
6.9701 996.0
7.25419 1464.0
7.53828 1122.0
7.82237 1131.0
8.10646 1118.0
8.39055 1089.0
8.67465 1136.0
8.95874 1045.0
9.24283 1079.0
9.52692 1000.0
9.81101 1015.0
10.0951 917.0
10.3792 873.0
10.6633 764.0
10.9474 623.0
11.2315 603.0
11.5156 598.0
11.7997 567.0
12.0837 510.0
12.3678 537.0
12.6519 585.0
12.936 690.0
13.2201 571.0
13.5042 520.0
13.7883 548.0
14.0724 599.0
14.3565 739.0
14.6406 1199.0
14.9247 857.0
15.2088 732.0
15.4928 663.0
15.7769 724.0
16.061 712.0
16.3451 643.0
16.6292 534.0
16.9133 543.0
17.1974 485.0
17.4815 466.0
17.7656 439.0
18.0497 504.0
18.3338 547.0
18.6179 521.0
18.9019 620.0
19.186 683.0
19.4701 685.0
19.7542 751.0
20.0383 803.0
20.3224 800.0
20.6065 788.0
20.8906 747.0
21.1747 699.0
21.4588 766.0
21.7429 869.0
22.0269 1113.0
22.311 1317.0
22.5951 1395.0
22.8792 1504.0
23.1633 1454.0
23.4474 1266.0
23.7315 1145.0
24.0156 1071.0
24.2997 954.0
24.5838 906.0
24.8679 853.0
25.152 1022.0
25.436 1227.0
25.7201 1095.0
26.0042 1288.0
26.2883 2031.0
26.5724 1574.0
26.8565 1230.0
27.1406 1265.0
27.4247 1156.0
27.7088 1032.0
27.9929 982.0
28.277 930.0
28.5611 859.0
28.8451 813.0
29.1292 713.0
29.4133 760.0
29.6974 679.0
29.9815 659.0
30.2656 650.0
30.5497 631.0
30.8338 628.0
31.1179 538.0
31.402 568.0
31.6861 565.0
31.9702 657.0
32.2542 594.0
32.5383 584.0
32.8224 623.0
33.1065 598.0
33.3906 685.0
33.6747 670.0
33.9588 657.0
34.2429 550.0
34.527 538.0
34.8111 553.0
35.0952 508.0
35.3793 544.0
35.6633 453.0
35.9474 460.0
36.2315 442.0
36.5156 462.0
36.7997 446.0
37.0838 440.0
37.3679 427.0
37.652 398.0
37.9361 442.0
38.2202 491.0
38.5043 417.0
38.7884 396.0
39.0724 391.0
39.3565 380.0
39.6406 371.0
39.9247 357.0
40.2088 330.0
40.4929 336.0
40.777 367.0
41.0611 389.0
41.3452 376.0
41.6293 362.0
41.9134 348.0
42.1975 334.0
42.4815 386.0
42.7656 368.0
43.0497 366.0
43.3338 358.0
43.6179 366.0
43.902 346.0
44.1861 371.0
44.4702 332.0
44.7543 407.0
45.0384 360.0
45.3225 403.0
45.6066 366.0
45.8906 341.0
46.1747 422.0
46.4588 424.0
46.7429 440.0
47.027 461.0
47.3111 428.0
47.5952 361.0
47.8793 368.0
48.1634 357.0
48.4475 367.0
48.7316 475.0
49.0156 396.0
49.2997 377.0
49.5838 439.0
49.8679 399.0
50.152 347.0
50.4361 424.0
50.7202 358.0
51.0043 342.0
51.2884 375.0
51.5725 366.0
51.8566 401.0
52.1407 408.0
52.4247 393.0
52.7088 381.0
52.9929 341.0
53.277 347.0
53.5611 350.0
53.8452 360.0
54.1293 344.0
54.4134 315.0
54.6975 342.0
54.9816 344.0
55.2657 323.0
55.5498 329.0
55.8338 347.0
56.1179 349.0
56.402 338.0
56.6861 360.0
56.9702 325.0
57.2543 339.0
57.5384 319.0
57.8225 353.0
58.1066 336.0
58.3907 294.0
58.6748 319.0
58.9589 318.0
59.2429 304.0
59.527 322.0
59.8111 324.0
60.0952 318.0
60.3793 369.0
60.6634 340.0
60.9475 381.0
61.2316 332.0
61.5157 300.0
61.7998 335.0
62.0839 340.0
62.368 353.0
62.652 329.0
62.9361 326.0
63.2202 363.0
63.5043 336.0
63.7884 311.0
64.0725 341.0
64.3566 348.0
64.6407 368.0
64.9248 340.0
65.2089 371.0
65.493 404.0
65.7771 397.0
66.0611 407.0
66.3452 418.0
66.6293 419.0
66.9134 379.0
67.1975 356.0
67.4816 326.0
67.7657 353.0
68.0498 366.0
68.3339 326.0
68.618 284.0
68.9021 358.0
69.1862 320.0
69.4702 317.0
69.7543 285.0
70.0384 318.0
70.3225 320.0
70.6066 318.0
70.8907 319.0
71.1748 332.0
71.4589 341.0
71.743 286.0
72.0271 291.0
72.3112 317.0
72.5952 321.0
72.8793 292.0
73.1634 302.0
73.4475 317.0
73.7316 307.0
74.0157 294.0
74.2998 272.0
74.5839 279.0
74.868 290.0
75.1521 258.0
75.4362 311.0
75.7203 313.0
76.0043 305.0
76.2884 299.0
76.5725 274.0
76.8566 280.0
77.1407 283.0
77.4248 248.0
77.7089 299.0
77.993 285.0
78.2771 280.0
78.5612 314.0
78.8453 255.0
79.1294 313.0
79.4134 298.0
79.6975 302.0
79.9816 301.0
80.2657 258.0
80.5498 240.0
80.8339 278.0
81.118 280.0
81.4021 286.0
81.6862 223.0
81.9703 231.0
82.2544 242.0
82.5385 233.0
82.8225 226.0
83.1066 236.0
83.3907 211.0
83.6748 209.0
83.9589 206.0
84.243 204.0
84.5271 204.0
84.8112 201.0
85.0953 197.0
85.3794 210.0
85.6635 197.0
85.9476 185.0
86.2316 177.0
86.5157 191.0
86.7998 170.0
87.0839 158.0
87.368 194.0
87.6521 176.0
87.9362 149.0
88.2203 177.0
88.5044 192.0
88.7885 189.0
89.0726 181.0
89.3567 165.0
89.6407 149.0
89.9248 163.0
89.9415 168.0