File: code/XRD_Analysis/External Sources/Fabian/20240328_ZSM-5.xy
4.98146 1042.0
5.26555 977.0
5.54964 891.0
5.83373 855.0
6.11782 750.0
6.40191 823.0
6.68601 773.0
6.9701 740.0
7.25419 726.0
7.53828 704.0
7.82237 2216.0
8.10646 9412.0
8.39055 918.0
8.67465 1354.0
8.95874 8102.0
9.24283 2469.0
9.52692 734.0
9.81101 558.0
10.0951 584.0
10.3792 504.0
10.6633 474.0
10.9474 472.0
11.2315 450.0
11.5156 464.0
11.7997 408.0
12.0837 519.0
12.3678 400.0
12.6519 463.0
12.936 394.0
13.2201 818.0
13.5042 492.0
13.7883 507.0
14.0724 1861.0
14.3565 459.0
14.6406 703.0
14.9247 2735.0
15.2088 575.0
15.4928 947.0
15.7769 1025.0
16.061 1874.0
16.3451 460.0
16.6292 845.0
16.9133 418.0
17.1974 441.0
17.4815 531.0
17.7656 1301.0
18.0497 650.0
18.3338 495.0
18.6179 402.0
18.9019 500.0
19.186 618.0
19.4701 665.0
19.7542 550.0
20.0383 641.0
20.3224 828.0
20.6065 886.0
20.8906 1640.0
21.1747 737.0
21.4588 543.0
21.7429 658.0
22.0269 729.0
22.311 1320.0
22.5951 846.0
22.8792 1305.0
23.1633 14533.0
23.4474 7314.0
23.7315 3361.0
24.0156 7915.0
24.2997 2070.0
24.5838 2445.0
24.8679 1144.0
25.152 599.0
25.436 674.0
25.7201 1125.0
26.0042 1669.0
26.2883 1074.0
26.5724 1121.0
26.8565 1156.0
27.1406 1583.0
27.4247 933.0
27.7088 713.0
27.9929 537.0
28.277 659.0
28.5611 719.0
28.8451 523.0
29.1292 617.0
29.4133 1494.0
29.6974 682.0
29.9815 3229.0
30.2656 1824.0
30.5497 789.0
30.8338 532.0
31.1179 497.0
31.402 824.0
31.6861 537.0
31.9702 481.0
32.2542 588.0
32.5383 481.0
32.8224 916.0
33.1065 553.0
33.3906 487.0
33.6747 512.0
33.9588 525.0
34.2429 525.0
34.527 876.0
34.8111 637.0
35.0952 637.0
35.3793 488.0
35.6633 588.0
35.9474 549.0
36.2315 1123.0
36.5156 620.0
36.7997 542.0
37.0838 473.0
37.3679 703.0
37.652 836.0
37.9361 505.0
38.2202 338.0
38.5043 310.0
38.7884 447.0
39.0724 361.0
39.3565 357.0
39.6406 354.0
39.9247 318.0
40.2088 254.0
40.4929 383.0
40.777 356.0
41.0611 448.0
41.3452 388.0
41.6293 463.0
41.9134 318.0
42.1975 313.0
42.4815 360.0
42.7656 346.0
43.0497 403.0
43.3338 480.0
43.6179 528.0
43.902 364.0
44.1861 375.0
44.4702 331.0
44.7543 441.0
45.0384 1096.0
45.3225 1231.0
45.6066 1486.0
45.8906 726.0
46.1747 445.0
46.4588 522.0
46.7429 646.0
47.027 299.0
47.3111 564.0
47.5952 664.0
47.8793 494.0
48.1634 301.0
48.4475 457.0
48.7316 567.0
49.0156 563.0
49.2997 301.0
49.5838 419.0
49.8679 380.0
50.152 362.0
50.4361 335.0
50.7202 304.0
51.0043 350.0
51.2884 362.0
51.5725 373.0
51.8566 540.0
52.1407 485.0
52.4247 503.0
52.7088 282.0
52.9929 342.0
53.277 362.0
53.5611 348.0
53.8452 381.0
54.1293 307.0
54.4134 289.0
54.6975 358.0
54.9816 744.0
55.2657 872.0
55.5498 497.0
55.8338 604.0
56.1179 458.0
56.402 336.0
56.6861 403.0
56.9702 345.0
57.2543 450.0
57.5384 409.0
57.8225 301.0
58.1066 284.0
58.3907 308.0
58.6748 300.0
58.9589 375.0
59.2429 472.0
59.527 370.0
59.8111 280.0
60.0952 309.0
60.3793 358.0
60.6634 320.0
60.9475 361.0
61.2316 365.0
61.5157 324.0
61.7998 329.0
62.0839 467.0
62.368 482.0
62.652 629.0
62.9361 425.0
63.2202 422.0
63.5043 616.0
63.7884 773.0
64.0725 504.0
64.3566 690.0
64.6407 646.0
64.9248 522.0
65.2089 462.0
65.493 672.0
65.7771 574.0
66.0611 536.0
66.3452 535.0
66.6293 381.0
66.9134 463.0
67.1975 680.0
67.4816 566.0
67.7657 495.0
68.0498 428.0
68.3339 349.0
68.618 328.0
68.9021 396.0
69.1862 371.0
69.4702 342.0
69.7543 310.0
70.0384 298.0
70.3225 413.0
70.6066 388.0
70.8907 320.0
71.1748 385.0
71.4589 350.0
71.743 290.0
72.0271 330.0
72.3112 308.0
72.5952 257.0
72.8793 271.0
73.1634 293.0
73.4475 300.0
73.7316 386.0
74.0157 353.0
74.2998 310.0
74.5839 328.0
74.868 386.0
75.1521 355.0
75.4362 348.0
75.7203 413.0
76.0043 371.0
76.2884 348.0
76.5725 372.0
76.8566 371.0
77.1407 433.0
77.4248 444.0
77.7089 384.0
77.993 324.0
78.2771 407.0
78.5612 533.0
78.8453 539.0
79.1294 621.0
79.4134 493.0
79.6975 404.0
79.9816 415.0
80.2657 387.0
80.5498 401.0
80.8339 354.0
81.118 370.0
81.4021 381.0
81.6862 344.0
81.9703 361.0
82.2544 308.0
82.5385 369.0
82.8225 346.0
83.1066 316.0
83.3907 318.0
83.6748 289.0
83.9589 242.0
84.243 272.0
84.5271 297.0
84.8112 329.0
85.0953 288.0
85.3794 285.0
85.6635 263.0
85.9476 313.0
86.2316 321.0
86.5157 255.0
86.7998 230.0
87.0839 201.0
87.368 223.0
87.6521 206.0
87.9362 268.0
88.2203 257.0
88.5044 254.0
88.7885 231.0
89.0726 213.0
89.3567 228.0
89.6407 221.0
89.9248 240.0
89.9415 223.0