File: code/XRD_Analysis/External Sources/Fabian/25012024_ZnZrOx_calc.xy
4.98146 1203.0
5.26555 1075.0
5.54964 1038.0
5.83373 960.0
6.11782 879.0
6.40191 844.0
6.68601 879.0
6.9701 734.0
7.25419 754.0
7.53828 696.0
7.82237 667.0
8.10646 654.0
8.39055 579.0
8.67465 610.0
8.95874 595.0
9.24283 543.0
9.52692 554.0
9.81101 570.0
10.0951 508.0
10.3792 534.0
10.6633 470.0
10.9474 435.0
11.2315 472.0
11.5156 411.0
11.7997 396.0
12.0837 445.0
12.3678 395.0
12.6519 369.0
12.936 367.0
13.2201 385.0
13.5042 368.0
13.7883 357.0
14.0724 347.0
14.3565 334.0
14.6406 341.0
14.9247 340.0
15.2088 338.0
15.4928 338.0
15.7769 310.0
16.061 282.0
16.3451 317.0
16.6292 319.0
16.9133 305.0
17.1974 272.0
17.4815 256.0
17.7656 284.0
18.0497 291.0
18.3338 292.0
18.6179 294.0
18.9019 257.0
19.186 288.0
19.4701 289.0
19.7542 293.0
20.0383 289.0
20.3224 289.0
20.6065 264.0
20.8906 295.0
21.1747 293.0
21.4588 302.0
21.7429 286.0
22.0269 288.0
22.311 293.0
22.5951 298.0
22.8792 346.0
23.1633 328.0
23.4474 355.0
23.7315 360.0
24.0156 365.0
24.2997 383.0
24.5838 394.0
24.8679 431.0
25.152 395.0
25.436 435.0
25.7201 411.0
26.0042 458.0
26.2883 507.0
26.5724 538.0
26.8565 513.0
27.1406 545.0
27.4247 623.0
27.7088 654.0
27.9929 651.0
28.277 691.0
28.5611 760.0
28.8451 817.0
29.1292 943.0
29.4133 1103.0
29.6974 1275.0
29.9815 1735.0
30.2656 3384.0
30.5497 6723.0
30.8338 2597.0
31.1179 1501.0
31.402 1144.0
31.6861 1090.0
31.9702 1033.0
32.2542 1018.0
32.5383 1022.0
32.8224 960.0
33.1065 947.0
33.3906 976.0
33.6747 922.0
33.9588 804.0
34.2429 830.0
34.527 805.0
34.8111 813.0
35.0952 1052.0
35.3793 1773.0
35.6633 928.0
35.9474 604.0
36.2315 462.0
36.5156 363.0
36.7997 383.0
37.0838 326.0
37.3679 342.0
37.652 308.0
37.9361 294.0
38.2202 253.0
38.5043 258.0
38.7884 276.0
39.0724 291.0
39.3565 269.0
39.6406 244.0
39.9247 314.0
40.2088 291.0
40.4929 238.0
40.777 295.0
41.0611 282.0
41.3452 268.0
41.6293 275.0
41.9134 317.0
42.1975 300.0
42.4815 320.0
42.7656 304.0
43.0497 299.0
43.3338 349.0
43.6179 326.0
43.902 316.0
44.1861 320.0
44.4702 342.0
44.7543 381.0
45.0384 348.0
45.3225 375.0
45.6066 357.0
45.8906 345.0
46.1747 426.0
46.4588 386.0
46.7429 428.0
47.027 422.0
47.3111 426.0
47.5952 401.0
47.8793 407.0
48.1634 469.0
48.4475 505.0
48.7316 560.0
49.0156 514.0
49.2997 603.0
49.5838 609.0
49.8679 755.0
50.152 909.0
50.4361 1362.0
50.7202 2421.0
51.0043 2610.0
51.2884 1316.0
51.5725 737.0
51.8566 623.0
52.1407 575.0
52.4247 493.0
52.7088 523.0
52.9929 526.0
53.277 493.0
53.5611 487.0
53.8452 466.0
54.1293 507.0
54.4134 477.0
54.6975 519.0
54.9816 480.0
55.2657 449.0
55.5498 466.0
55.8338 464.0
56.1179 448.0
56.402 480.0
56.6861 497.0
56.9702 482.0
57.2543 490.0
57.5384 491.0
57.8225 453.0
58.1066 523.0
58.3907 538.0
58.6748 518.0
58.9589 587.0
59.2429 659.0
59.527 695.0
59.8111 823.0
60.0952 1106.0
60.3793 1906.0
60.6634 1725.0
60.9475 982.0
61.2316 605.0
61.5157 509.0
61.7998 446.0
62.0839 471.0
62.368 473.0
62.652 465.0
62.9361 502.0
63.2202 524.0
63.5043 579.0
63.7884 500.0
64.0725 394.0
64.3566 365.0
64.6407 364.0
64.9248 322.0
65.2089 319.0
65.493 288.0
65.7771 308.0
66.0611 317.0
66.3452 321.0
66.6293 275.0
66.9134 301.0
67.1975 253.0
67.4816 258.0
67.7657 278.0
68.0498 298.0
68.3339 262.0
68.618 232.0
68.9021 210.0
69.1862 224.0
69.4702 226.0
69.7543 236.0
70.0384 240.0
70.3225 252.0
70.6066 213.0
70.8907 230.0
71.1748 238.0
71.4589 248.0
71.743 211.0
72.0271 233.0
72.3112 219.0
72.5952 213.0
72.8793 207.0
73.1634 195.0
73.4475 221.0
73.7316 258.0
74.0157 244.0
74.2998 294.0
74.5839 350.0
74.868 398.0
75.1521 334.0
75.4362 254.0
75.7203 204.0
76.0043 201.0
76.2884 180.0
76.5725 185.0
76.8566 195.0
77.1407 198.0
77.4248 193.0
77.7089 208.0
77.993 194.0
78.2771 224.0
78.5612 215.0
78.8453 198.0
79.1294 237.0
79.4134 215.0
79.6975 213.0
79.9816 213.0
80.2657 195.0
80.5498 225.0
80.8339 252.0
81.118 245.0
81.4021 233.0
81.6862 323.0
81.9703 324.0
82.2544 430.0
82.5385 488.0
82.8225 584.0
83.1066 544.0
83.3907 365.0
83.6748 291.0
83.9589 293.0
84.243 297.0
84.5271 329.0
84.8112 318.0
85.0953 383.0
85.3794 432.0
85.6635 456.0
85.9476 330.0
86.2316 266.0
86.5157 274.0
86.7998 250.0
87.0839 210.0
87.368 204.0
87.6521 231.0
87.9362 216.0
88.2203 244.0
88.5044 212.0
88.7885 247.0
89.0726 225.0
89.3567 236.0
89.6407 240.0
89.9248 212.0
89.9415 236.0