File: code/XRD_Analysis/Zeolites/data_files/SAPO-14_SAPO-34_comp/assynth/20241019_SAPO-14_SAPO-34_composite_Probe-2_assynth.xy
4.98146 1042.0
5.26555 888.0
5.54964 828.0
5.83373 907.0
6.11782 1055.0
6.40191 854.0
6.68601 723.0
6.9701 653.0
7.25419 658.0
7.53828 669.0
7.82237 694.0
8.10646 646.0
8.39055 641.0
8.67465 808.0
8.95874 2254.0
9.24283 1479.0
9.52692 792.0
9.81101 576.0
10.0951 487.0
10.3792 504.0
10.6633 467.0
10.9474 873.0
11.2315 465.0
11.5156 494.0
11.7997 487.0
12.0837 561.0
12.3678 520.0
12.6519 1366.0
12.936 2804.0
13.2201 1075.0
13.5042 430.0
13.7883 439.0
14.0724 412.0
14.3565 366.0
14.6406 457.0
14.9247 392.0
15.2088 490.0
15.4928 463.0
15.7769 2566.0
16.061 556.0
16.3451 432.0
16.6292 401.0
16.9133 380.0
17.1974 467.0
17.4815 586.0
17.7656 4728.0
18.0497 425.0
18.3338 430.0
18.6179 696.0
18.9019 995.0
19.186 393.0
19.4701 367.0
19.7542 488.0
20.0383 643.0
20.3224 2612.0
20.6065 1172.0
20.8906 554.0
21.1747 520.0
21.4588 1075.0
21.7429 2198.0
22.0269 1473.0
22.311 1517.0
22.5951 3104.0
22.8792 2891.0
23.1633 553.0
23.4474 465.0
23.7315 616.0
24.0156 478.0
24.2997 464.0
24.5838 478.0
24.8679 2174.0
25.152 622.0
25.436 556.0
25.7201 4134.0
26.0042 868.0
26.2883 492.0
26.5724 400.0
26.8565 392.0
27.1406 620.0
27.4247 1029.0
27.7088 428.0
27.9929 404.0
28.277 524.0
28.5611 538.0
28.8451 704.0
29.1292 592.0
29.4133 2222.0
29.6974 1081.0
29.9815 688.0
30.2656 1424.0
30.5497 2137.0
30.8338 3406.0
31.1179 2806.0
31.402 563.0
31.6861 439.0
31.9702 442.0
32.2542 543.0
32.5383 582.0
32.8224 340.0
33.1065 669.0
33.3906 447.0
33.6747 899.0
33.9588 387.0
34.2429 1517.0
34.527 360.0
34.8111 605.0
35.0952 476.0
35.3793 665.0
35.6633 556.0
35.9474 664.0
36.2315 353.0
36.5156 334.0
36.7997 273.0
37.0838 363.0
37.3679 284.0
37.652 263.0
37.9361 322.0
38.2202 383.0
38.5043 569.0
38.7884 375.0
39.0724 571.0
39.3565 353.0
39.6406 529.0
39.9247 295.0
40.2088 262.0
40.4929 328.0
40.777 532.0
41.0611 304.0
41.3452 250.0
41.6293 262.0
41.9134 288.0
42.1975 358.0
42.4815 388.0
42.7656 657.0
43.0497 417.0
43.3338 726.0
43.6179 301.0
43.902 361.0
44.1861 269.0
44.4702 378.0
44.7543 309.0
45.0384 380.0
45.3225 266.0
45.6066 290.0
45.8906 264.0
46.1747 262.0
46.4588 411.0
46.7429 336.0
47.027 360.0
47.3111 560.0
47.5952 498.0
47.8793 362.0
48.1634 278.0
48.4475 330.0
48.7316 1018.0
49.0156 345.0
49.2997 315.0
49.5838 416.0
49.8679 294.0
50.152 244.0
50.4361 395.0
50.7202 984.0
51.0043 388.0
51.2884 330.0
51.5725 369.0
51.8566 283.0
52.1407 326.0
52.4247 238.0
52.7088 300.0
52.9929 788.0
53.277 454.0
53.5611 339.0
53.8452 380.0
54.1293 445.0
54.4134 540.0
54.6975 253.0
54.9816 254.0
55.2657 291.0
55.5498 447.0
55.8338 580.0
56.1179 495.0
56.402 247.0
56.6861 288.0
56.9702 309.0
57.2543 282.0
57.5384 278.0
57.8225 270.0
58.1066 237.0
58.3907 321.0
58.6748 246.0
58.9589 288.0
59.2429 288.0
59.527 463.0
59.8111 305.0
60.0952 267.0
60.3793 269.0
60.6634 370.0
60.9475 469.0
61.2316 401.0
61.5157 331.0
61.7998 323.0
62.0839 313.0
62.368 410.0
62.652 378.0
62.9361 238.0
63.2202 317.0
63.5043 259.0
63.7884 230.0
64.0725 303.0
64.3566 302.0
64.6407 236.0
64.9248 214.0
65.2089 239.0
65.493 295.0
65.7771 347.0
66.0611 492.0
66.3452 243.0
66.6293 227.0
66.9134 571.0
67.1975 369.0
67.4816 276.0
67.7657 261.0
68.0498 226.0
68.3339 239.0
68.618 282.0
68.9021 453.0
69.1862 301.0
69.4702 206.0
69.7543 233.0
70.0384 292.0
70.3225 272.0
70.6066 518.0
70.8907 662.0
71.1748 396.0
71.4589 283.0
71.743 219.0
72.0271 357.0
72.3112 313.0
72.5952 315.0
72.8793 267.0
73.1634 206.0
73.4475 184.0
73.7316 277.0
74.0157 254.0
74.2998 232.0
74.5839 269.0
74.868 293.0
75.1521 363.0
75.4362 254.0
75.7203 252.0
76.0043 335.0
76.2884 262.0
76.5725 224.0
76.8566 223.0
77.1407 190.0
77.4248 205.0
77.7089 195.0
77.993 256.0
78.2771 204.0
78.5612 167.0
78.8453 261.0
79.1294 263.0
79.4134 216.0
79.6975 250.0
79.9816 248.0
80.2657 308.0
80.5498 283.0
80.8339 258.0
81.118 253.0
81.4021 203.0
81.6862 226.0
81.9703 176.0
82.2544 174.0
82.5385 207.0
82.8225 213.0
83.1066 188.0
83.3907 175.0
83.6748 203.0
83.9589 211.0
84.243 173.0
84.5271 158.0
84.8112 137.0
85.0953 163.0
85.3794 142.0
85.6635 152.0
85.9476 167.0
86.2316 184.0
86.5157 190.0
86.7998 176.0
87.0839 154.0
87.368 182.0
87.6521 147.0
87.9362 144.0
88.2203 163.0
88.5044 158.0
88.7885 136.0
89.0726 126.0
89.3567 134.0
89.6407 136.0
89.9248 169.0
89.9415 164.0