File: code/XRD_Analysis/Zeolites/data_files/SAPO-14_SAPO-34_comp/assynth/20241019_SAPO-14_SAPO-34_composite_Probe-1_assynth.xy
4.98146 967.0
5.26555 935.0
5.54964 854.0
5.83373 906.0
6.11782 805.0
6.40191 748.0
6.68601 745.0
6.9701 689.0
7.25419 652.0
7.53828 631.0
7.82237 609.0
8.10646 627.0
8.39055 632.0
8.67465 756.0
8.95874 9469.0
9.24283 869.0
9.52692 9378.0
9.81101 574.0
10.0951 489.0
10.3792 476.0
10.6633 487.0
10.9474 507.0
11.2315 2470.0
11.5156 422.0
11.7997 444.0
12.0837 414.0
12.3678 456.0
12.6519 446.0
12.936 1749.0
13.2201 650.0
13.5042 514.0
13.7883 411.0
14.0724 388.0
14.3565 352.0
14.6406 393.0
14.9247 442.0
15.2088 361.0
15.4928 406.0
15.7769 1872.0
16.061 2947.0
16.3451 389.0
16.6292 355.0
16.9133 317.0
17.1974 362.0
17.4815 422.0
17.7656 738.0
18.0497 3605.0
18.3338 349.0
18.6179 411.0
18.9019 398.0
19.186 941.0
19.4701 325.0
19.7542 341.0
20.0383 407.0
20.3224 576.0
20.6065 6735.0
20.8906 3460.0
21.1747 441.0
21.4588 420.0
21.7429 1834.0
22.0269 1075.0
22.311 3213.0
22.5951 2956.0
22.8792 4650.0
23.1633 1099.0
23.4474 439.0
23.7315 380.0
24.0156 387.0
24.2997 385.0
24.5838 429.0
24.8679 583.0
25.152 1808.0
25.436 1069.0
25.7201 661.0
26.0042 1205.0
26.2883 3066.0
26.5724 674.0
26.8565 403.0
27.1406 807.0
27.4247 362.0
27.7088 1667.0
27.9929 367.0
28.277 865.0
28.5611 439.0
28.8451 1196.0
29.1292 1400.0
29.4133 919.0
29.6974 2334.0
29.9815 676.0
30.2656 1326.0
30.5497 2494.0
30.8338 4551.0
31.1179 2126.0
31.402 726.0
31.6861 607.0
31.9702 471.0
32.2542 963.0
32.5383 880.0
32.8224 330.0
33.1065 447.0
33.3906 659.0
33.6747 1033.0
33.9588 443.0
34.2429 451.0
34.527 861.0
34.8111 342.0
35.0952 778.0
35.3793 330.0
35.6633 1388.0
35.9474 417.0
36.2315 607.0
36.5156 717.0
36.7997 460.0
37.0838 325.0
37.3679 456.0
37.652 251.0
37.9361 424.0
38.2202 349.0
38.5043 680.0
38.7884 367.0
39.0724 886.0
39.3565 652.0
39.6406 532.0
39.9247 324.0
40.2088 576.0
40.4929 803.0
40.777 463.0
41.0611 768.0
41.3452 245.0
41.6293 221.0
41.9134 280.0
42.1975 630.0
42.4815 494.0
42.7656 591.0
43.0497 438.0
43.3338 492.0
43.6179 386.0
43.902 280.0
44.1861 551.0
44.4702 551.0
44.7543 394.0
45.0384 669.0
45.3225 304.0
45.6066 353.0
45.8906 266.0
46.1747 457.0
46.4588 537.0
46.7429 380.0
47.027 454.0
47.3111 400.0
47.5952 520.0
47.8793 654.0
48.1634 407.0
48.4475 418.0
48.7316 590.0
49.0156 674.0
49.2997 473.0
49.5838 319.0
49.8679 269.0
50.152 414.0
50.4361 354.0
50.7202 446.0
51.0043 448.0
51.2884 412.0
51.5725 274.0
51.8566 471.0
52.1407 576.0
52.4247 389.0
52.7088 286.0
52.9929 469.0
53.277 551.0
53.5611 508.0
53.8452 422.0
54.1293 794.0
54.4134 803.0
54.6975 427.0
54.9816 315.0
55.2657 497.0
55.5498 339.0
55.8338 313.0
56.1179 635.0
56.402 335.0
56.6861 363.0
56.9702 331.0
57.2543 362.0
57.5384 279.0
57.8225 395.0
58.1066 300.0
58.3907 353.0
58.6748 289.0
58.9589 245.0
59.2429 342.0
59.527 436.0
59.8111 517.0
60.0952 369.0
60.3793 288.0
60.6634 308.0
60.9475 721.0
61.2316 729.0
61.5157 447.0
61.7998 396.0
62.0839 379.0
62.368 415.0
62.652 446.0
62.9361 518.0
63.2202 335.0
63.5043 304.0
63.7884 297.0
64.0725 306.0
64.3566 350.0
64.6407 257.0
64.9248 236.0
65.2089 358.0
65.493 305.0
65.7771 425.0
66.0611 525.0
66.3452 429.0
66.6293 293.0
66.9134 331.0
67.1975 313.0
67.4816 289.0
67.7657 301.0
68.0498 277.0
68.3339 272.0
68.618 470.0
68.9021 330.0
69.1862 304.0
69.4702 310.0
69.7543 241.0
70.0384 340.0
70.3225 323.0
70.6066 528.0
70.8907 518.0
71.1748 542.0
71.4589 393.0
71.743 352.0
72.0271 464.0
72.3112 433.0
72.5952 573.0
72.8793 363.0
73.1634 255.0
73.4475 207.0
73.7316 243.0
74.0157 293.0
74.2998 350.0
74.5839 384.0
74.868 382.0
75.1521 384.0
75.4362 398.0
75.7203 345.0
76.0043 378.0
76.2884 263.0
76.5725 223.0
76.8566 247.0
77.1407 216.0
77.4248 224.0
77.7089 205.0
77.993 225.0
78.2771 264.0
78.5612 300.0
78.8453 261.0
79.1294 275.0
79.4134 272.0
79.6975 293.0
79.9816 280.0
80.2657 330.0
80.5498 326.0
80.8339 334.0
81.118 306.0
81.4021 242.0
81.6862 300.0
81.9703 197.0
82.2544 200.0
82.5385 261.0
82.8225 253.0
83.1066 210.0
83.3907 181.0
83.6748 174.0
83.9589 210.0
84.243 199.0
84.5271 178.0
84.8112 166.0
85.0953 239.0
85.3794 205.0
85.6635 174.0
85.9476 191.0
86.2316 195.0
86.5157 217.0
86.7998 225.0
87.0839 180.0
87.368 207.0
87.6521 222.0
87.9362 214.0
88.2203 194.0
88.5044 175.0
88.7885 157.0
89.0726 153.0
89.3567 160.0
89.6407 170.0
89.9248 176.0
89.9415 157.0