File: code/XRD_Analysis/Zeolites/data_files/SAPO-34/assynth/20241028_SAPO-34-1-assynth-Probe-1.xy
4.98146 991.0
5.26555 860.0
5.54964 851.0
5.83373 818.0
6.11782 725.0
6.40191 703.0
6.68601 712.0
6.9701 648.0
7.25419 667.0
7.53828 667.0
7.82237 642.0
8.10646 556.0
8.39055 585.0
8.67465 574.0
8.95874 642.0
9.24283 1607.0
9.52692 3236.0
9.81101 798.0
10.0951 703.0
10.3792 641.0
10.6633 603.0
10.9474 550.0
11.2315 554.0
11.5156 538.0
11.7997 559.0
12.0837 525.0
12.3678 522.0
12.6519 955.0
12.936 602.0
13.2201 588.0
13.5042 419.0
13.7883 592.0
14.0724 598.0
14.3565 568.0
14.6406 568.0
14.9247 620.0
15.2088 683.0
15.4928 678.0
15.7769 1181.0
16.061 1376.0
16.3451 956.0
16.6292 1392.0
16.9133 1560.0
17.1974 1308.0
17.4815 1080.0
17.7656 1310.0
18.0497 901.0
18.3338 817.0
18.6179 789.0
18.9019 1356.0
19.186 910.0
19.4701 1118.0
19.7542 1382.0
20.0383 1396.0
20.3224 2147.0
20.6065 3237.0
20.8906 1898.0
21.1747 2073.0
21.4588 1003.0
21.7429 511.0
22.0269 757.0
22.311 643.0
22.5951 645.0
22.8792 835.0
23.1633 801.0
23.4474 865.0
23.7315 1109.0
24.0156 1156.0
24.2997 1205.0
24.5838 1144.0
24.8679 1369.0
25.152 1414.0
25.436 1045.0
25.7201 3243.0
26.0042 1058.0
26.2883 980.0
26.5724 792.0
26.8565 625.0
27.1406 511.0
27.4247 792.0
27.7088 554.0
27.9929 704.0
28.277 739.0
28.5611 563.0
28.8451 514.0
29.1292 614.0
29.4133 1382.0
29.6974 879.0
29.9815 1339.0
30.2656 1962.0
30.5497 2356.0
30.8338 2351.0
31.1179 2389.0
31.402 1015.0
31.6861 1012.0
31.9702 863.0
32.2542 1052.0
32.5383 680.0
32.8224 551.0
33.1065 637.0
33.3906 520.0
33.6747 528.0
33.9588 494.0
34.2429 680.0
34.527 529.0
34.8111 399.0
35.0952 336.0
35.3793 402.0
35.6633 367.0
35.9474 496.0
36.2315 557.0
36.5156 303.0
36.7997 291.0
37.0838 270.0
37.3679 290.0
37.652 243.0
37.9361 280.0
38.2202 268.0
38.5043 330.0
38.7884 411.0
39.0724 426.0
39.3565 403.0
39.6406 377.0
39.9247 301.0
40.2088 286.0
40.4929 263.0
40.777 290.0
41.0611 276.0
41.3452 277.0
41.6293 267.0
41.9134 254.0
42.1975 254.0
42.4815 230.0
42.7656 363.0
43.0497 553.0
43.3338 454.0
43.6179 349.0
43.902 290.0
44.1861 275.0
44.4702 261.0
44.7543 225.0
45.0384 244.0
45.3225 188.0
45.6066 207.0
45.8906 238.0
46.1747 227.0
46.4588 253.0
46.7429 250.0
47.027 259.0
47.3111 314.0
47.5952 400.0
47.8793 271.0
48.1634 260.0
48.4475 273.0
48.7316 613.0
49.0156 784.0
49.2997 362.0
49.5838 360.0
49.8679 387.0
50.152 504.0
50.4361 326.0
50.7202 488.0
51.0043 503.0
51.2884 361.0
51.5725 340.0
51.8566 272.0
52.1407 266.0
52.4247 288.0
52.7088 267.0
52.9929 552.0
53.277 347.0
53.5611 294.0
53.8452 285.0
54.1293 268.0
54.4134 338.0
54.6975 277.0
54.9816 357.0
55.2657 382.0
55.5498 434.0
55.8338 431.0
56.1179 381.0
56.402 302.0
56.6861 266.0
56.9702 239.0
57.2543 228.0
57.5384 209.0
57.8225 198.0
58.1066 222.0
58.3907 194.0
58.6748 247.0
58.9589 208.0
59.2429 302.0
59.527 372.0
59.8111 244.0
60.0952 237.0
60.3793 244.0
60.6634 288.0
60.9475 311.0
61.2316 326.0
61.5157 283.0
61.7998 225.0
62.0839 250.0
62.368 279.0
62.652 231.0
62.9361 224.0
63.2202 269.0
63.5043 252.0
63.7884 226.0
64.0725 227.0
64.3566 237.0
64.6407 241.0
64.9248 241.0
65.2089 222.0
65.493 243.0
65.7771 268.0
66.0611 328.0
66.3452 344.0
66.6293 388.0
66.9134 354.0
67.1975 293.0
67.4816 256.0
67.7657 242.0
68.0498 208.0
68.3339 210.0
68.618 214.0
68.9021 252.0
69.1862 271.0
69.4702 273.0
69.7543 310.0
70.0384 430.0
70.3225 369.0
70.6066 355.0
70.8907 303.0
71.1748 307.0
71.4589 293.0
71.743 255.0
72.0271 266.0
72.3112 322.0
72.5952 261.0
72.8793 225.0
73.1634 222.0
73.4475 169.0
73.7316 245.0
74.0157 216.0
74.2998 207.0
74.5839 226.0
74.868 219.0
75.1521 262.0
75.4362 222.0
75.7203 236.0
76.0043 225.0
76.2884 191.0
76.5725 213.0
76.8566 184.0
77.1407 201.0
77.4248 216.0
77.7089 159.0
77.993 193.0
78.2771 172.0
78.5612 172.0
78.8453 177.0
79.1294 166.0
79.4134 193.0
79.6975 189.0
79.9816 193.0
80.2657 154.0
80.5498 223.0
80.8339 193.0
81.118 183.0
81.4021 162.0
81.6862 177.0
81.9703 176.0
82.2544 147.0
82.5385 153.0
82.8225 194.0
83.1066 188.0
83.3907 148.0
83.6748 173.0
83.9589 153.0
84.243 149.0
84.5271 155.0
84.8112 167.0
85.0953 121.0
85.3794 128.0
85.6635 139.0
85.9476 122.0
86.2316 135.0
86.5157 149.0
86.7998 146.0
87.0839 133.0
87.368 133.0
87.6521 133.0
87.9362 132.0
88.2203 153.0
88.5044 121.0
88.7885 136.0
89.0726 157.0
89.3567 112.0
89.6407 120.0
89.9248 137.0
89.9415 123.0