File: code/XRD_Analysis/Zeolites/data_files/SAPO-34/assynth/20241028_SAPO-34-1-assynth-Probe-2.xy
4.98146 985.0
5.26555 948.0
5.54964 863.0
5.83373 867.0
6.11782 763.0
6.40191 774.0
6.68601 785.0
6.9701 677.0
7.25419 728.0
7.53828 642.0
7.82237 693.0
8.10646 674.0
8.39055 636.0
8.67465 572.0
8.95874 652.0
9.24283 951.0
9.52692 17138.0
9.81101 922.0
10.0951 731.0
10.3792 656.0
10.6633 616.0
10.9474 632.0
11.2315 594.0
11.5156 600.0
11.7997 598.0
12.0837 583.0
12.3678 587.0
12.6519 633.0
12.936 1044.0
13.2201 630.0
13.5042 504.0
13.7883 519.0
14.0724 1151.0
14.3565 714.0
14.6406 672.0
14.9247 715.0
15.2088 753.0
15.4928 778.0
15.7769 830.0
16.061 5372.0
16.3451 990.0
16.6292 1170.0
16.9133 1322.0
17.1974 1287.0
17.4815 1110.0
17.7656 1089.0
18.0497 1070.0
18.3338 930.0
18.6179 876.0
18.9019 888.0
19.186 892.0
19.4701 1018.0
19.7542 1261.0
20.0383 1381.0
20.3224 1747.0
20.6065 10456.0
20.8906 1880.0
21.1747 1882.0
21.4588 1198.0
21.7429 617.0
22.0269 901.0
22.311 734.0
22.5951 698.0
22.8792 717.0
23.1633 1109.0
23.4474 808.0
23.7315 917.0
24.0156 1039.0
24.2997 1079.0
24.5838 1172.0
24.8679 1229.0
25.152 2169.0
25.436 1182.0
25.7201 1609.0
26.0042 1158.0
26.2883 980.0
26.5724 888.0
26.8565 712.0
27.1406 644.0
27.4247 604.0
27.7088 715.0
27.9929 604.0
28.277 910.0
28.5611 591.0
28.8451 581.0
29.1292 600.0
29.4133 1004.0
29.6974 806.0
29.9815 1130.0
30.2656 1757.0
30.5497 3300.0
30.8338 2000.0
31.1179 2806.0
31.402 1297.0
31.6861 1109.0
31.9702 861.0
32.2542 932.0
32.5383 635.0
32.8224 583.0
33.1065 559.0
33.3906 565.0
33.6747 616.0
33.9588 553.0
34.2429 614.0
34.527 708.0
34.8111 440.0
35.0952 418.0
35.3793 474.0
35.6633 392.0
35.9474 466.0
36.2315 619.0
36.5156 353.0
36.7997 331.0
37.0838 308.0
37.3679 324.0
37.652 346.0
37.9361 394.0
38.2202 464.0
38.5043 475.0
38.7884 511.0
39.0724 467.0
39.3565 493.0
39.6406 510.0
39.9247 356.0
40.2088 291.0
40.4929 337.0
40.777 338.0
41.0611 307.0
41.3452 300.0
41.6293 290.0
41.9134 321.0
42.1975 289.0
42.4815 310.0
42.7656 316.0
43.0497 587.0
43.3338 602.0
43.6179 414.0
43.902 376.0
44.1861 329.0
44.4702 311.0
44.7543 258.0
45.0384 267.0
45.3225 248.0
45.6066 262.0
45.8906 243.0
46.1747 276.0
46.4588 280.0
46.7429 309.0
47.027 280.0
47.3111 366.0
47.5952 506.0
47.8793 319.0
48.1634 288.0
48.4475 367.0
48.7316 605.0
49.0156 1169.0
49.2997 429.0
49.5838 423.0
49.8679 455.0
50.152 520.0
50.4361 409.0
50.7202 425.0
51.0043 626.0
51.2884 416.0
51.5725 410.0
51.8566 321.0
52.1407 320.0
52.4247 297.0
52.7088 309.0
52.9929 420.0
53.277 439.0
53.5611 309.0
53.8452 353.0
54.1293 313.0
54.4134 404.0
54.6975 289.0
54.9816 328.0
55.2657 367.0
55.5498 435.0
55.8338 493.0
56.1179 379.0
56.402 333.0
56.6861 277.0
56.9702 287.0
57.2543 251.0
57.5384 252.0
57.8225 214.0
58.1066 228.0
58.3907 211.0
58.6748 253.0
58.9589 235.0
59.2429 286.0
59.527 464.0
59.8111 275.0
60.0952 252.0
60.3793 268.0
60.6634 275.0
60.9475 372.0
61.2316 378.0
61.5157 350.0
61.7998 253.0
62.0839 292.0
62.368 328.0
62.652 261.0
62.9361 272.0
63.2202 308.0
63.5043 294.0
63.7884 250.0
64.0725 266.0
64.3566 270.0
64.6407 276.0
64.9248 282.0
65.2089 274.0
65.493 252.0
65.7771 245.0
66.0611 347.0
66.3452 370.0
66.6293 386.0
66.9134 401.0
67.1975 371.0
67.4816 361.0
67.7657 286.0
68.0498 271.0
68.3339 210.0
68.618 283.0
68.9021 261.0
69.1862 285.0
69.4702 324.0
69.7543 328.0
70.0384 399.0
70.3225 403.0
70.6066 441.0
70.8907 375.0
71.1748 350.0
71.4589 309.0
71.743 276.0
72.0271 299.0
72.3112 306.0
72.5952 275.0
72.8793 263.0
73.1634 225.0
73.4475 217.0
73.7316 226.0
74.0157 235.0
74.2998 228.0
74.5839 246.0
74.868 244.0
75.1521 268.0
75.4362 239.0
75.7203 223.0
76.0043 247.0
76.2884 227.0
76.5725 193.0
76.8566 220.0
77.1407 221.0
77.4248 254.0
77.7089 193.0
77.993 216.0
78.2771 189.0
78.5612 165.0
78.8453 197.0
79.1294 209.0
79.4134 203.0
79.6975 225.0
79.9816 208.0
80.2657 208.0
80.5498 245.0
80.8339 214.0
81.118 207.0
81.4021 180.0
81.6862 179.0
81.9703 212.0
82.2544 196.0
82.5385 169.0
82.8225 186.0
83.1066 203.0
83.3907 176.0
83.6748 163.0
83.9589 205.0
84.243 161.0
84.5271 146.0
84.8112 150.0
85.0953 154.0
85.3794 155.0
85.6635 167.0
85.9476 126.0
86.2316 129.0
86.5157 159.0
86.7998 155.0
87.0839 159.0
87.368 159.0
87.6521 147.0
87.9362 142.0
88.2203 133.0
88.5044 154.0
88.7885 133.0
89.0726 143.0
89.3567 135.0
89.6407 107.0
89.9248 120.0
89.9415 128.0