File: code/XRD_Analysis/Zeolites/data_files/SAPO-34/calc/20241114_SAPO-34-2_calc_Probe-3.xy
4.98146 976.0
5.26555 889.0
5.54964 779.0
5.83373 747.0
6.11782 754.0
6.40191 697.0
6.68601 656.0
6.9701 653.0
7.25419 604.0
7.53828 673.0
7.82237 629.0
8.10646 587.0
8.39055 602.0
8.67465 568.0
8.95874 570.0
9.24283 657.0
9.52692 3603.0
9.81101 1486.0
10.0951 737.0
10.3792 724.0
10.6633 698.0
10.9474 650.0
11.2315 617.0
11.5156 554.0
11.7997 551.0
12.0837 545.0
12.3678 525.0
12.6519 537.0
12.936 1351.0
13.2201 803.0
13.5042 756.0
13.7883 561.0
14.0724 612.0
14.3565 483.0
14.6406 438.0
14.9247 487.0
15.2088 482.0
15.4928 497.0
15.7769 552.0
16.061 797.0
16.3451 1451.0
16.6292 728.0
16.9133 1031.0
17.1974 1241.0
17.4815 872.0
17.7656 882.0
18.0497 1055.0
18.3338 678.0
18.6179 728.0
18.9019 680.0
19.186 1053.0
19.4701 808.0
19.7542 896.0
20.0383 906.0
20.3224 917.0
20.6065 1142.0
20.8906 4014.0
21.1747 1220.0
21.4588 1472.0
21.7429 1028.0
22.0269 759.0
22.311 888.0
22.5951 872.0
22.8792 828.0
23.1633 913.0
23.4474 1309.0
23.7315 1048.0
24.0156 1350.0
24.2997 1390.0
24.5838 1243.0
24.8679 1192.0
25.152 1544.0
25.436 1208.0
25.7201 1212.0
26.0042 1494.0
26.2883 2246.0
26.5724 1350.0
26.8565 1126.0
27.1406 1068.0
27.4247 1072.0
27.7088 978.0
27.9929 1276.0
28.277 1213.0
28.5611 1253.0
28.8451 1113.0
29.1292 1035.0
29.4133 989.0
29.6974 1101.0
29.9815 1256.0
30.2656 1418.0
30.5497 1569.0
30.8338 2168.0
31.1179 2356.0
31.402 2712.0
31.6861 1594.0
31.9702 1367.0
32.2542 1169.0
32.5383 1131.0
32.8224 1133.0
33.1065 1000.0
33.3906 891.0
33.6747 850.0
33.9588 798.0
34.2429 746.0
34.527 801.0
34.8111 756.0
35.0952 682.0
35.3793 625.0
35.6633 615.0
35.9474 537.0
36.2315 605.0
36.5156 649.0
36.7997 565.0
37.0838 486.0
37.3679 513.0
37.652 497.0
37.9361 475.0
38.2202 509.0
38.5043 486.0
38.7884 465.0
39.0724 483.0
39.3565 543.0
39.6406 523.0
39.9247 489.0
40.2088 525.0
40.4929 463.0
40.777 474.0
41.0611 464.0
41.3452 503.0
41.6293 493.0
41.9134 496.0
42.1975 462.0
42.4815 477.0
42.7656 482.0
43.0497 502.0
43.3338 513.0
43.6179 534.0
43.902 557.0
44.1861 485.0
44.4702 492.0
44.7543 497.0
45.0384 505.0
45.3225 505.0
45.6066 511.0
45.8906 470.0
46.1747 442.0
46.4588 428.0
46.7429 502.0
47.027 438.0
47.3111 487.0
47.5952 460.0
47.8793 470.0
48.1634 507.0
48.4475 489.0
48.7316 466.0
49.0156 553.0
49.2997 618.0
49.5838 667.0
49.8679 572.0
50.152 538.0
50.4361 540.0
50.7202 507.0
51.0043 574.0
51.2884 604.0
51.5725 534.0
51.8566 534.0
52.1407 510.0
52.4247 477.0
52.7088 476.0
52.9929 497.0
53.277 504.0
53.5611 514.0
53.8452 584.0
54.1293 469.0
54.4134 445.0
54.6975 516.0
54.9816 495.0
55.2657 479.0
55.5498 509.0
55.8338 521.0
56.1179 496.0
56.402 538.0
56.6861 539.0
56.9702 492.0
57.2543 455.0
57.5384 457.0
57.8225 414.0
58.1066 436.0
58.3907 399.0
58.6748 416.0
58.9589 399.0
59.2429 407.0
59.527 395.0
59.8111 418.0
60.0952 448.0
60.3793 469.0
60.6634 454.0
60.9475 425.0
61.2316 403.0
61.5157 404.0
61.7998 430.0
62.0839 465.0
62.368 420.0
62.652 435.0
62.9361 411.0
63.2202 428.0
63.5043 393.0
63.7884 394.0
64.0725 418.0
64.3566 422.0
64.6407 424.0
64.9248 385.0
65.2089 439.0
65.493 348.0
65.7771 418.0
66.0611 412.0
66.3452 384.0
66.6293 410.0
66.9134 448.0
67.1975 426.0
67.4816 438.0
67.7657 454.0
68.0498 428.0
68.3339 411.0
68.618 402.0
68.9021 362.0
69.1862 403.0
69.4702 356.0
69.7543 432.0
70.0384 353.0
70.3225 387.0
70.6066 400.0
70.8907 397.0
71.1748 403.0
71.4589 423.0
71.743 400.0
72.0271 370.0
72.3112 379.0
72.5952 393.0
72.8793 365.0
73.1634 373.0
73.4475 355.0
73.7316 357.0
74.0157 338.0
74.2998 356.0
74.5839 386.0
74.868 389.0
75.1521 353.0
75.4362 361.0
75.7203 364.0
76.0043 330.0
76.2884 346.0
76.5725 361.0
76.8566 317.0
77.1407 333.0
77.4248 302.0
77.7089 317.0
77.993 345.0
78.2771 315.0
78.5612 316.0
78.8453 349.0
79.1294 317.0
79.4134 311.0
79.6975 302.0
79.9816 313.0
80.2657 284.0
80.5498 301.0
80.8339 273.0
81.118 307.0
81.4021 300.0
81.6862 255.0
81.9703 271.0
82.2544 289.0
82.5385 252.0
82.8225 305.0
83.1066 277.0
83.3907 248.0
83.6748 241.0
83.9589 287.0
84.243 252.0
84.5271 247.0
84.8112 242.0
85.0953 226.0
85.3794 246.0
85.6635 228.0
85.9476 222.0
86.2316 205.0
86.5157 245.0
86.7998 204.0
87.0839 242.0
87.368 220.0
87.6521 245.0
87.9362 227.0
88.2203 228.0
88.5044 216.0
88.7885 206.0
89.0726 226.0
89.3567 220.0
89.6407 212.0
89.9248 201.0
89.9415 211.0