File: code/XRD_Analysis/Zeolites/data_files/SAPO-34/calc/20241029_SAPO-34-1_calc_Probe-2.xy
4.98146 1033.0
5.26555 931.0
5.54964 837.0
5.83373 846.0
6.11782 789.0
6.40191 752.0
6.68601 752.0
6.9701 672.0
7.25419 704.0
7.53828 725.0
7.82237 672.0
8.10646 609.0
8.39055 605.0
8.67465 631.0
8.95874 648.0
9.24283 916.0
9.52692 25143.0
9.81101 986.0
10.0951 778.0
10.3792 686.0
10.6633 581.0
10.9474 670.0
11.2315 639.0
11.5156 645.0
11.7997 649.0
12.0837 679.0
12.3678 648.0
12.6519 688.0
12.936 3038.0
13.2201 723.0
13.5042 887.0
13.7883 512.0
14.0724 674.0
14.3565 561.0
14.6406 568.0
14.9247 612.0
15.2088 574.0
15.4928 616.0
15.7769 633.0
16.061 1523.0
16.3451 766.0
16.6292 830.0
16.9133 1073.0
17.1974 1097.0
17.4815 935.0
17.7656 1170.0
18.0497 855.0
18.3338 781.0
18.6179 751.0
18.9019 790.0
19.186 1776.0
19.4701 755.0
19.7542 853.0
20.0383 957.0
20.3224 1066.0
20.6065 1447.0
20.8906 2052.0
21.1747 1413.0
21.4588 1391.0
21.7429 887.0
22.0269 880.0
22.311 857.0
22.5951 957.0
22.8792 966.0
23.1633 1456.0
23.4474 1125.0
23.7315 1152.0
24.0156 1225.0
24.2997 1235.0
24.5838 1286.0
24.8679 1445.0
25.152 1500.0
25.436 1262.0
25.7201 1255.0
26.0042 1678.0
26.2883 1574.0
26.5724 1207.0
26.8565 1239.0
27.1406 1123.0
27.4247 1054.0
27.7088 1123.0
27.9929 1258.0
28.277 1437.0
28.5611 1183.0
28.8451 1109.0
29.1292 1047.0
29.4133 1088.0
29.6974 1356.0
29.9815 1296.0
30.2656 1543.0
30.5497 1879.0
30.8338 2504.0
31.1179 2834.0
31.402 2165.0
31.6861 1367.0
31.9702 1336.0
32.2542 1175.0
32.5383 1122.0
32.8224 1033.0
33.1065 892.0
33.3906 816.0
33.6747 957.0
33.9588 834.0
34.2429 801.0
34.527 792.0
34.8111 850.0
35.0952 805.0
35.3793 703.0
35.6633 694.0
35.9474 734.0
36.2315 717.0
36.5156 634.0
36.7997 602.0
37.0838 607.0
37.3679 570.0
37.652 501.0
37.9361 518.0
38.2202 568.0
38.5043 536.0
38.7884 616.0
39.0724 582.0
39.3565 630.0
39.6406 586.0
39.9247 540.0
40.2088 588.0
40.4929 537.0
40.777 517.0
41.0611 506.0
41.3452 514.0
41.6293 551.0
41.9134 544.0
42.1975 585.0
42.4815 584.0
42.7656 514.0
43.0497 555.0
43.3338 580.0
43.6179 597.0
43.902 548.0
44.1861 559.0
44.4702 536.0
44.7543 529.0
45.0384 534.0
45.3225 563.0
45.6066 535.0
45.8906 540.0
46.1747 518.0
46.4588 543.0
46.7429 532.0
47.027 467.0
47.3111 510.0
47.5952 509.0
47.8793 500.0
48.1634 532.0
48.4475 502.0
48.7316 536.0
49.0156 545.0
49.2997 840.0
49.5838 592.0
49.8679 534.0
50.152 516.0
50.4361 542.0
50.7202 501.0
51.0043 572.0
51.2884 538.0
51.5725 544.0
51.8566 520.0
52.1407 486.0
52.4247 524.0
52.7088 502.0
52.9929 500.0
53.277 519.0
53.5611 518.0
53.8452 545.0
54.1293 500.0
54.4134 524.0
54.6975 534.0
54.9816 486.0
55.2657 435.0
55.5498 498.0
55.8338 495.0
56.1179 463.0
56.402 504.0
56.6861 539.0
56.9702 479.0
57.2543 446.0
57.5384 455.0
57.8225 433.0
58.1066 413.0
58.3907 448.0
58.6748 442.0
58.9589 427.0
59.2429 495.0
59.527 401.0
59.8111 486.0
60.0952 454.0
60.3793 448.0
60.6634 451.0
60.9475 444.0
61.2316 449.0
61.5157 448.0
61.7998 465.0
62.0839 469.0
62.368 454.0
62.652 439.0
62.9361 458.0
63.2202 426.0
63.5043 422.0
63.7884 430.0
64.0725 414.0
64.3566 427.0
64.6407 404.0
64.9248 407.0
65.2089 429.0
65.493 447.0
65.7771 433.0
66.0611 465.0
66.3452 488.0
66.6293 473.0
66.9134 495.0
67.1975 516.0
67.4816 483.0
67.7657 396.0
68.0498 389.0
68.3339 424.0
68.618 427.0
68.9021 397.0
69.1862 382.0
69.4702 376.0
69.7543 368.0
70.0384 413.0
70.3225 397.0
70.6066 443.0
70.8907 420.0
71.1748 384.0
71.4589 372.0
71.743 396.0
72.0271 394.0
72.3112 378.0
72.5952 367.0
72.8793 364.0
73.1634 368.0
73.4475 361.0
73.7316 351.0
74.0157 350.0
74.2998 341.0
74.5839 377.0
74.868 360.0
75.1521 332.0
75.4362 336.0
75.7203 340.0
76.0043 341.0
76.2884 370.0
76.5725 302.0
76.8566 368.0
77.1407 375.0
77.4248 324.0
77.7089 334.0
77.993 325.0
78.2771 322.0
78.5612 328.0
78.8453 324.0
79.1294 323.0
79.4134 317.0
79.6975 285.0
79.9816 360.0
80.2657 293.0
80.5498 313.0
80.8339 290.0
81.118 298.0
81.4021 260.0
81.6862 254.0
81.9703 258.0
82.2544 280.0
82.5385 247.0
82.8225 252.0
83.1066 264.0
83.3907 239.0
83.6748 256.0
83.9589 250.0
84.243 253.0
84.5271 251.0
84.8112 219.0
85.0953 260.0
85.3794 228.0
85.6635 258.0
85.9476 255.0
86.2316 236.0
86.5157 219.0
86.7998 223.0
87.0839 193.0
87.368 226.0
87.6521 223.0
87.9362 198.0
88.2203 235.0
88.5044 199.0
88.7885 216.0
89.0726 239.0
89.3567 210.0
89.6407 198.0
89.9248 223.0
89.9415 237.0