File: code/XRD_Analysis/Zeolites/data_files/SAPO-34/calc/20241114_SAPO-34-2_calc_Probe-1.xy
4.98146 1021.0
5.26555 930.0
5.54964 837.0
5.83373 785.0
6.11782 756.0
6.40191 675.0
6.68601 681.0
6.9701 656.0
7.25419 659.0
7.53828 594.0
7.82237 568.0
8.10646 549.0
8.39055 563.0
8.67465 564.0
8.95874 559.0
9.24283 673.0
9.52692 3433.0
9.81101 2565.0
10.0951 781.0
10.3792 659.0
10.6633 732.0
10.9474 664.0
11.2315 538.0
11.5156 550.0
11.7997 522.0
12.0837 561.0
12.3678 513.0
12.6519 524.0
12.936 1078.0
13.2201 1151.0
13.5042 651.0
13.7883 505.0
14.0724 575.0
14.3565 416.0
14.6406 415.0
14.9247 416.0
15.2088 411.0
15.4928 488.0
15.7769 554.0
16.061 684.0
16.3451 1549.0
16.6292 621.0
16.9133 840.0
17.1974 1179.0
17.4815 1054.0
17.7656 801.0
18.0497 1274.0
18.3338 601.0
18.6179 582.0
18.9019 685.0
19.186 972.0
19.4701 761.0
19.7542 846.0
20.0383 887.0
20.3224 1020.0
20.6065 1064.0
20.8906 4477.0
21.1747 1243.0
21.4588 1477.0
21.7429 948.0
22.0269 685.0
22.311 845.0
22.5951 759.0
22.8792 926.0
23.1633 955.0
23.4474 1312.0
23.7315 976.0
24.0156 1401.0
24.2997 1369.0
24.5838 1032.0
24.8679 1026.0
25.152 1510.0
25.436 1160.0
25.7201 1005.0
26.0042 1181.0
26.2883 2174.0
26.5724 1367.0
26.8565 1004.0
27.1406 933.0
27.4247 910.0
27.7088 873.0
27.9929 1324.0
28.277 1100.0
28.5611 1090.0
28.8451 885.0
29.1292 948.0
29.4133 876.0
29.6974 957.0
29.9815 1097.0
30.2656 1243.0
30.5497 1370.0
30.8338 1785.0
31.1179 2768.0
31.402 2709.0
31.6861 1246.0
31.9702 1301.0
32.2542 1021.0
32.5383 1134.0
32.8224 973.0
33.1065 922.0
33.3906 798.0
33.6747 697.0
33.9588 714.0
34.2429 631.0
34.527 649.0
34.8111 710.0
35.0952 744.0
35.3793 589.0
35.6633 543.0
35.9474 483.0
36.2315 589.0
36.5156 561.0
36.7997 500.0
37.0838 446.0
37.3679 436.0
37.652 461.0
37.9361 451.0
38.2202 407.0
38.5043 422.0
38.7884 501.0
39.0724 440.0
39.3565 447.0
39.6406 520.0
39.9247 489.0
40.2088 498.0
40.4929 473.0
40.777 411.0
41.0611 423.0
41.3452 459.0
41.6293 460.0
41.9134 469.0
42.1975 476.0
42.4815 471.0
42.7656 360.0
43.0497 466.0
43.3338 520.0
43.6179 466.0
43.902 457.0
44.1861 443.0
44.4702 435.0
44.7543 413.0
45.0384 465.0
45.3225 414.0
45.6066 442.0
45.8906 422.0
46.1747 422.0
46.4588 395.0
46.7429 399.0
47.027 396.0
47.3111 441.0
47.5952 425.0
47.8793 432.0
48.1634 455.0
48.4475 493.0
48.7316 385.0
49.0156 458.0
49.2997 556.0
49.5838 666.0
49.8679 559.0
50.152 493.0
50.4361 503.0
50.7202 500.0
51.0043 505.0
51.2884 527.0
51.5725 477.0
51.8566 471.0
52.1407 438.0
52.4247 443.0
52.7088 454.0
52.9929 402.0
53.277 458.0
53.5611 419.0
53.8452 444.0
54.1293 430.0
54.4134 473.0
54.6975 412.0
54.9816 399.0
55.2657 454.0
55.5498 435.0
55.8338 467.0
56.1179 418.0
56.402 424.0
56.6861 470.0
56.9702 425.0
57.2543 441.0
57.5384 340.0
57.8225 384.0
58.1066 380.0
58.3907 323.0
58.6748 377.0
58.9589 372.0
59.2429 340.0
59.527 402.0
59.8111 382.0
60.0952 408.0
60.3793 425.0
60.6634 386.0
60.9475 354.0
61.2316 381.0
61.5157 371.0
61.7998 410.0
62.0839 402.0
62.368 376.0
62.652 389.0
62.9361 341.0
63.2202 377.0
63.5043 364.0
63.7884 336.0
64.0725 370.0
64.3566 351.0
64.6407 357.0
64.9248 338.0
65.2089 380.0
65.493 355.0
65.7771 352.0
66.0611 345.0
66.3452 368.0
66.6293 353.0
66.9134 365.0
67.1975 412.0
67.4816 354.0
67.7657 344.0
68.0498 357.0
68.3339 373.0
68.618 404.0
68.9021 363.0
69.1862 349.0
69.4702 329.0
69.7543 375.0
70.0384 354.0
70.3225 344.0
70.6066 365.0
70.8907 375.0
71.1748 328.0
71.4589 348.0
71.743 345.0
72.0271 311.0
72.3112 331.0
72.5952 344.0
72.8793 338.0
73.1634 363.0
73.4475 315.0
73.7316 309.0
74.0157 310.0
74.2998 301.0
74.5839 323.0
74.868 331.0
75.1521 331.0
75.4362 306.0
75.7203 304.0
76.0043 322.0
76.2884 316.0
76.5725 298.0
76.8566 289.0
77.1407 258.0
77.4248 274.0
77.7089 279.0
77.993 294.0
78.2771 263.0
78.5612 311.0
78.8453 282.0
79.1294 248.0
79.4134 243.0
79.6975 236.0
79.9816 264.0
80.2657 272.0
80.5498 250.0
80.8339 245.0
81.118 259.0
81.4021 233.0
81.6862 236.0
81.9703 229.0
82.2544 248.0
82.5385 239.0
82.8225 237.0
83.1066 237.0
83.3907 221.0
83.6748 247.0
83.9589 224.0
84.243 215.0
84.5271 200.0
84.8112 208.0
85.0953 221.0
85.3794 179.0
85.6635 191.0
85.9476 203.0
86.2316 196.0
86.5157 199.0
86.7998 189.0
87.0839 194.0
87.368 180.0
87.6521 178.0
87.9362 194.0
88.2203 176.0
88.5044 188.0
88.7885 141.0
89.0726 189.0
89.3567 177.0
89.6407 162.0
89.9248 191.0
89.9415 178.0