File: code/XRD_Analysis/Zeolites/data_files/SAPO-34/calc/20241029_SAPO-34-1_calc_Probe-1.xy
4.98146 957.0
5.26555 882.0
5.54964 841.0
5.83373 805.0
6.11782 737.0
6.40191 706.0
6.68601 685.0
6.9701 656.0
7.25419 649.0
7.53828 664.0
7.82237 659.0
8.10646 621.0
8.39055 592.0
8.67465 611.0
8.95874 619.0
9.24283 812.0
9.52692 17014.0
9.81101 892.0
10.0951 698.0
10.3792 701.0
10.6633 660.0
10.9474 676.0
11.2315 587.0
11.5156 617.0
11.7997 598.0
12.0837 550.0
12.3678 582.0
12.6519 613.0
12.936 3080.0
13.2201 659.0
13.5042 881.0
13.7883 481.0
14.0724 570.0
14.3565 491.0
14.6406 531.0
14.9247 501.0
15.2088 549.0
15.4928 554.0
15.7769 579.0
16.061 1666.0
16.3451 667.0
16.6292 821.0
16.9133 1055.0
17.1974 1018.0
17.4815 816.0
17.7656 986.0
18.0497 660.0
18.3338 670.0
18.6179 724.0
18.9019 680.0
19.186 1447.0
19.4701 726.0
19.7542 790.0
20.0383 842.0
20.3224 877.0
20.6065 1494.0
20.8906 1606.0
21.1747 1204.0
21.4588 1444.0
21.7429 756.0
22.0269 781.0
22.311 740.0
22.5951 830.0
22.8792 845.0
23.1633 1282.0
23.4474 953.0
23.7315 1057.0
24.0156 1213.0
24.2997 1180.0
24.5838 1163.0
24.8679 1250.0
25.152 1246.0
25.436 1072.0
25.7201 1131.0
26.0042 1678.0
26.2883 1291.0
26.5724 1114.0
26.8565 1010.0
27.1406 978.0
27.4247 941.0
27.7088 995.0
27.9929 1008.0
28.277 1227.0
28.5611 992.0
28.8451 967.0
29.1292 997.0
29.4133 946.0
29.6974 1278.0
29.9815 1177.0
30.2656 1435.0
30.5497 1783.0
30.8338 2188.0
31.1179 2460.0
31.402 1978.0
31.6861 1236.0
31.9702 1237.0
32.2542 1047.0
32.5383 1004.0
32.8224 889.0
33.1065 821.0
33.3906 773.0
33.6747 786.0
33.9588 697.0
34.2429 667.0
34.527 692.0
34.8111 715.0
35.0952 623.0
35.3793 582.0
35.6633 548.0
35.9474 552.0
36.2315 591.0
36.5156 561.0
36.7997 465.0
37.0838 469.0
37.3679 445.0
37.652 503.0
37.9361 419.0
38.2202 419.0
38.5043 430.0
38.7884 461.0
39.0724 478.0
39.3565 475.0
39.6406 481.0
39.9247 495.0
40.2088 459.0
40.4929 460.0
40.777 430.0
41.0611 456.0
41.3452 438.0
41.6293 440.0
41.9134 474.0
42.1975 456.0
42.4815 412.0
42.7656 429.0
43.0497 488.0
43.3338 485.0
43.6179 440.0
43.902 480.0
44.1861 401.0
44.4702 430.0
44.7543 404.0
45.0384 425.0
45.3225 409.0
45.6066 385.0
45.8906 399.0
46.1747 417.0
46.4588 398.0
46.7429 402.0
47.027 416.0
47.3111 427.0
47.5952 383.0
47.8793 419.0
48.1634 424.0
48.4475 410.0
48.7316 442.0
49.0156 518.0
49.2997 643.0
49.5838 519.0
49.8679 471.0
50.152 432.0
50.4361 485.0
50.7202 447.0
51.0043 456.0
51.2884 526.0
51.5725 465.0
51.8566 451.0
52.1407 450.0
52.4247 391.0
52.7088 410.0
52.9929 389.0
53.277 419.0
53.5611 461.0
53.8452 439.0
54.1293 403.0
54.4134 407.0
54.6975 407.0
54.9816 371.0
55.2657 399.0
55.5498 356.0
55.8338 434.0
56.1179 383.0
56.402 400.0
56.6861 396.0
56.9702 377.0
57.2543 392.0
57.5384 362.0
57.8225 328.0
58.1066 357.0
58.3907 369.0
58.6748 387.0
58.9589 354.0
59.2429 341.0
59.527 363.0
59.8111 380.0
60.0952 371.0
60.3793 340.0
60.6634 345.0
60.9475 366.0
61.2316 353.0
61.5157 393.0
61.7998 401.0
62.0839 332.0
62.368 377.0
62.652 375.0
62.9361 332.0
63.2202 345.0
63.5043 384.0
63.7884 366.0
64.0725 367.0
64.3566 363.0
64.6407 357.0
64.9248 314.0
65.2089 333.0
65.493 340.0
65.7771 310.0
66.0611 354.0
66.3452 317.0
66.6293 340.0
66.9134 357.0
67.1975 370.0
67.4816 347.0
67.7657 338.0
68.0498 362.0
68.3339 344.0
68.618 341.0
68.9021 290.0
69.1862 328.0
69.4702 322.0
69.7543 319.0
70.0384 328.0
70.3225 317.0
70.6066 339.0
70.8907 361.0
71.1748 352.0
71.4589 302.0
71.743 311.0
72.0271 314.0
72.3112 303.0
72.5952 294.0
72.8793 297.0
73.1634 297.0
73.4475 300.0
73.7316 288.0
74.0157 329.0
74.2998 293.0
74.5839 303.0
74.868 270.0
75.1521 310.0
75.4362 292.0
75.7203 286.0
76.0043 286.0
76.2884 288.0
76.5725 277.0
76.8566 250.0
77.1407 300.0
77.4248 247.0
77.7089 254.0
77.993 255.0
78.2771 266.0
78.5612 245.0
78.8453 241.0
79.1294 256.0
79.4134 269.0
79.6975 248.0
79.9816 253.0
80.2657 237.0
80.5498 239.0
80.8339 246.0
81.118 215.0
81.4021 208.0
81.6862 229.0
81.9703 193.0
82.2544 205.0
82.5385 209.0
82.8225 246.0
83.1066 232.0
83.3907 200.0
83.6748 191.0
83.9589 222.0
84.243 185.0
84.5271 213.0
84.8112 192.0
85.0953 223.0
85.3794 197.0
85.6635 192.0
85.9476 169.0
86.2316 176.0
86.5157 169.0
86.7998 169.0
87.0839 172.0
87.368 174.0
87.6521 149.0
87.9362 174.0
88.2203 168.0
88.5044 144.0
88.7885 176.0
89.0726 153.0
89.3567 176.0
89.6407 181.0
89.9248 175.0
89.9415 174.0