File: code/XRD_Analysis/Zeolites/data_files/SAPO-34/calc/20241114_SAPO-34-2_calc_Probe-2.xy
4.98146 955.0
5.26555 922.0
5.54964 846.0
5.83373 816.0
6.11782 789.0
6.40191 750.0
6.68601 729.0
6.9701 709.0
7.25419 668.0
7.53828 632.0
7.82237 612.0
8.10646 573.0
8.39055 597.0
8.67465 616.0
8.95874 598.0
9.24283 865.0
9.52692 10025.0
9.81101 1439.0
10.0951 956.0
10.3792 674.0
10.6633 790.0
10.9474 618.0
11.2315 587.0
11.5156 565.0
11.7997 571.0
12.0837 575.0
12.3678 585.0
12.6519 656.0
12.936 2708.0
13.2201 813.0
13.5042 727.0
13.7883 524.0
14.0724 666.0
14.3565 505.0
14.6406 447.0
14.9247 500.0
15.2088 539.0
15.4928 686.0
15.7769 632.0
16.061 1273.0
16.3451 788.0
16.6292 725.0
16.9133 910.0
17.1974 876.0
17.4815 795.0
17.7656 1085.0
18.0497 1018.0
18.3338 695.0
18.6179 698.0
18.9019 763.0
19.186 1291.0
19.4701 879.0
19.7542 923.0
20.0383 934.0
20.3224 961.0
20.6065 1652.0
20.8906 2774.0
21.1747 1205.0
21.4588 1089.0
21.7429 785.0
22.0269 786.0
22.311 809.0
22.5951 927.0
22.8792 912.0
23.1633 1214.0
23.4474 1042.0
23.7315 1008.0
24.0156 1304.0
24.2997 1158.0
24.5838 1064.0
24.8679 1151.0
25.152 1562.0
25.436 1196.0
25.7201 1119.0
26.0042 1533.0
26.2883 1692.0
26.5724 1292.0
26.8565 1080.0
27.1406 1026.0
27.4247 958.0
27.7088 1009.0
27.9929 1081.0
28.277 1145.0
28.5611 1052.0
28.8451 1055.0
29.1292 1079.0
29.4133 947.0
29.6974 1057.0
29.9815 1193.0
30.2656 1321.0
30.5497 1406.0
30.8338 2463.0
31.1179 2334.0
31.402 2098.0
31.6861 1470.0
31.9702 1319.0
32.2542 1054.0
32.5383 1065.0
32.8224 1004.0
33.1065 908.0
33.3906 772.0
33.6747 794.0
33.9588 688.0
34.2429 683.0
34.527 703.0
34.8111 888.0
35.0952 606.0
35.3793 619.0
35.6633 585.0
35.9474 547.0
36.2315 635.0
36.5156 552.0
36.7997 517.0
37.0838 465.0
37.3679 465.0
37.652 429.0
37.9361 449.0
38.2202 429.0
38.5043 483.0
38.7884 483.0
39.0724 429.0
39.3565 492.0
39.6406 458.0
39.9247 485.0
40.2088 460.0
40.4929 466.0
40.777 424.0
41.0611 434.0
41.3452 416.0
41.6293 450.0
41.9134 446.0
42.1975 439.0
42.4815 447.0
42.7656 430.0
43.0497 436.0
43.3338 507.0
43.6179 455.0
43.902 491.0
44.1861 457.0
44.4702 432.0
44.7543 433.0
45.0384 428.0
45.3225 433.0
45.6066 384.0
45.8906 401.0
46.1747 408.0
46.4588 430.0
46.7429 396.0
47.027 430.0
47.3111 429.0
47.5952 448.0
47.8793 401.0
48.1634 458.0
48.4475 471.0
48.7316 430.0
49.0156 458.0
49.2997 601.0
49.5838 584.0
49.8679 500.0
50.152 475.0
50.4361 470.0
50.7202 449.0
51.0043 503.0
51.2884 549.0
51.5725 442.0
51.8566 458.0
52.1407 450.0
52.4247 433.0
52.7088 441.0
52.9929 443.0
53.277 433.0
53.5611 448.0
53.8452 491.0
54.1293 430.0
54.4134 401.0
54.6975 391.0
54.9816 396.0
55.2657 419.0
55.5498 401.0
55.8338 445.0
56.1179 423.0
56.402 414.0
56.6861 436.0
56.9702 415.0
57.2543 391.0
57.5384 366.0
57.8225 372.0
58.1066 395.0
58.3907 365.0
58.6748 382.0
58.9589 354.0
59.2429 361.0
59.527 317.0
59.8111 344.0
60.0952 395.0
60.3793 426.0
60.6634 415.0
60.9475 395.0
61.2316 375.0
61.5157 349.0
61.7998 398.0
62.0839 382.0
62.368 364.0
62.652 375.0
62.9361 352.0
63.2202 339.0
63.5043 340.0
63.7884 310.0
64.0725 341.0
64.3566 317.0
64.6407 350.0
64.9248 341.0
65.2089 337.0
65.493 322.0
65.7771 319.0
66.0611 340.0
66.3452 346.0
66.6293 344.0
66.9134 385.0
67.1975 339.0
67.4816 384.0
67.7657 371.0
68.0498 375.0
68.3339 321.0
68.618 326.0
68.9021 338.0
69.1862 345.0
69.4702 381.0
69.7543 361.0
70.0384 366.0
70.3225 356.0
70.6066 369.0
70.8907 340.0
71.1748 325.0
71.4589 322.0
71.743 333.0
72.0271 309.0
72.3112 306.0
72.5952 295.0
72.8793 320.0
73.1634 332.0
73.4475 333.0
73.7316 319.0
74.0157 324.0
74.2998 285.0
74.5839 315.0
74.868 318.0
75.1521 283.0
75.4362 287.0
75.7203 290.0
76.0043 307.0
76.2884 325.0
76.5725 307.0
76.8566 304.0
77.1407 286.0
77.4248 285.0
77.7089 264.0
77.993 261.0
78.2771 276.0
78.5612 273.0
78.8453 275.0
79.1294 289.0
79.4134 260.0
79.6975 244.0
79.9816 248.0
80.2657 241.0
80.5498 245.0
80.8339 239.0
81.118 244.0
81.4021 217.0
81.6862 221.0
81.9703 217.0
82.2544 239.0
82.5385 198.0
82.8225 190.0
83.1066 209.0
83.3907 219.0
83.6748 219.0
83.9589 198.0
84.243 210.0
84.5271 205.0
84.8112 189.0
85.0953 195.0
85.3794 194.0
85.6635 199.0
85.9476 209.0
86.2316 199.0
86.5157 190.0
86.7998 168.0
87.0839 179.0
87.368 186.0
87.6521 183.0
87.9362 170.0
88.2203 193.0
88.5044 191.0
88.7885 167.0
89.0726 138.0
89.3567 160.0
89.6407 151.0
89.9248 177.0
89.9415 179.0