File: code/XRD_Analysis/Zeolites/data_files/SAPO-34/calc/20241114_SAPO-34-2_calc_Probe-4.xy
4.98146 947.0
5.26555 840.0
5.54964 768.0
5.83373 768.0
6.11782 716.0
6.40191 650.0
6.68601 666.0
6.9701 660.0
7.25419 728.0
7.53828 1364.0
7.82237 574.0
8.10646 552.0
8.39055 558.0
8.67465 580.0
8.95874 525.0
9.24283 609.0
9.52692 3178.0
9.81101 1125.0
10.0951 609.0
10.3792 626.0
10.6633 548.0
10.9474 588.0
11.2315 516.0
11.5156 478.0
11.7997 511.0
12.0837 496.0
12.3678 506.0
12.6519 475.0
12.936 1435.0
13.2201 632.0
13.5042 631.0
13.7883 475.0
14.0724 500.0
14.3565 395.0
14.6406 411.0
14.9247 621.0
15.2088 426.0
15.4928 460.0
15.7769 506.0
16.061 778.0
16.3451 1035.0
16.6292 614.0
16.9133 835.0
17.1974 889.0
17.4815 720.0
17.7656 701.0
18.0497 712.0
18.3338 572.0
18.6179 529.0
18.9019 599.0
19.186 934.0
19.4701 657.0
19.7542 1468.0
20.0383 767.0
20.3224 781.0
20.6065 1017.0
20.8906 2777.0
21.1747 1474.0
21.4588 1272.0
21.7429 850.0
22.0269 645.0
22.311 1101.0
22.5951 1279.0
22.8792 717.0
23.1633 817.0
23.4474 1015.0
23.7315 852.0
24.0156 1078.0
24.2997 1085.0
24.5838 1114.0
24.8679 1104.0
25.152 1231.0
25.436 1041.0
25.7201 1070.0
26.0042 1587.0
26.2883 1713.0
26.5724 1082.0
26.8565 953.0
27.1406 917.0
27.4247 855.0
27.7088 837.0
27.9929 1057.0
28.277 935.0
28.5611 949.0
28.8451 847.0
29.1292 1135.0
29.4133 829.0
29.6974 927.0
29.9815 1303.0
30.2656 1111.0
30.5497 1359.0
30.8338 1810.0
31.1179 1975.0
31.402 2193.0
31.6861 1208.0
31.9702 1177.0
32.2542 955.0
32.5383 976.0
32.8224 915.0
33.1065 783.0
33.3906 748.0
33.6747 835.0
33.9588 699.0
34.2429 632.0
34.527 902.0
34.8111 697.0
35.0952 641.0
35.3793 578.0
35.6633 529.0
35.9474 519.0
36.2315 511.0
36.5156 529.0
36.7997 495.0
37.0838 523.0
37.3679 445.0
37.652 422.0
37.9361 606.0
38.2202 409.0
38.5043 423.0
38.7884 469.0
39.0724 426.0
39.3565 476.0
39.6406 459.0
39.9247 424.0
40.2088 485.0
40.4929 444.0
40.777 432.0
41.0611 453.0
41.3452 433.0
41.6293 456.0
41.9134 451.0
42.1975 457.0
42.4815 486.0
42.7656 409.0
43.0497 500.0
43.3338 518.0
43.6179 521.0
43.902 454.0
44.1861 446.0
44.4702 469.0
44.7543 439.0
45.0384 443.0
45.3225 412.0
45.6066 408.0
45.8906 430.0
46.1747 402.0
46.4588 440.0
46.7429 379.0
47.027 438.0
47.3111 427.0
47.5952 503.0
47.8793 444.0
48.1634 469.0
48.4475 431.0
48.7316 388.0
49.0156 465.0
49.2997 555.0
49.5838 567.0
49.8679 469.0
50.152 487.0
50.4361 461.0
50.7202 512.0
51.0043 501.0
51.2884 531.0
51.5725 492.0
51.8566 479.0
52.1407 442.0
52.4247 412.0
52.7088 430.0
52.9929 419.0
53.277 424.0
53.5611 500.0
53.8452 491.0
54.1293 430.0
54.4134 462.0
54.6975 415.0
54.9816 461.0
55.2657 378.0
55.5498 476.0
55.8338 489.0
56.1179 482.0
56.402 396.0
56.6861 448.0
56.9702 439.0
57.2543 425.0
57.5384 401.0
57.8225 363.0
58.1066 397.0
58.3907 391.0
58.6748 413.0
58.9589 443.0
59.2429 331.0
59.527 409.0
59.8111 378.0
60.0952 431.0
60.3793 423.0
60.6634 401.0
60.9475 391.0
61.2316 384.0
61.5157 415.0
61.7998 402.0
62.0839 401.0
62.368 396.0
62.652 361.0
62.9361 371.0
63.2202 341.0
63.5043 401.0
63.7884 353.0
64.0725 348.0
64.3566 386.0
64.6407 349.0
64.9248 387.0
65.2089 399.0
65.493 376.0
65.7771 377.0
66.0611 371.0
66.3452 364.0
66.6293 392.0
66.9134 351.0
67.1975 385.0
67.4816 407.0
67.7657 363.0
68.0498 422.0
68.3339 367.0
68.618 392.0
68.9021 354.0
69.1862 320.0
69.4702 342.0
69.7543 365.0
70.0384 370.0
70.3225 380.0
70.6066 377.0
70.8907 385.0
71.1748 402.0
71.4589 350.0
71.743 323.0
72.0271 361.0
72.3112 366.0
72.5952 391.0
72.8793 361.0
73.1634 313.0
73.4475 369.0
73.7316 306.0
74.0157 336.0
74.2998 333.0
74.5839 341.0
74.868 360.0
75.1521 356.0
75.4362 345.0
75.7203 306.0
76.0043 336.0
76.2884 313.0
76.5725 322.0
76.8566 298.0
77.1407 318.0
77.4248 324.0
77.7089 288.0
77.993 278.0
78.2771 316.0
78.5612 291.0
78.8453 315.0
79.1294 307.0
79.4134 292.0
79.6975 273.0
79.9816 252.0
80.2657 267.0
80.5498 250.0
80.8339 282.0
81.118 305.0
81.4021 289.0
81.6862 271.0
81.9703 273.0
82.2544 252.0
82.5385 239.0
82.8225 242.0
83.1066 242.0
83.3907 223.0
83.6748 261.0
83.9589 244.0
84.243 214.0
84.5271 198.0
84.8112 231.0
85.0953 230.0
85.3794 235.0
85.6635 211.0
85.9476 210.0
86.2316 217.0
86.5157 198.0
86.7998 184.0
87.0839 200.0
87.368 199.0
87.6521 220.0
87.9362 230.0
88.2203 212.0
88.5044 221.0
88.7885 185.0
89.0726 167.0
89.3567 175.0
89.6407 183.0
89.9248 168.0
89.9415 182.0